# RPA macroscopic dielectric function without local fields
# Tolerance =  0.0200 0.0200
# npweps  = 59
# npwwfn  = 137
# nbands  = 6
# loband  = 2
# nkibz   = 512
# nkbz    = 512
# Lorentzian broadening =  0.1500 [eV]
# List of q-points for the optical limit:
# q =  0.938821, 0.000000, 0.000000, [Reduced coords] 
# q =  0.000000, 0.938821, 0.000000, [Reduced coords] 
# q =  0.000000, 0.000000, 0.938821, [Reduced coords] 
# q =  0.000000, 0.813043, 0.813043, [Reduced coords] 
# q =  0.813043, 0.000000, 0.813043, [Reduced coords] 
# q =  0.813043, 0.813043, 0.000000, [Reduced coords] 
# omega [eV]    RE(eps(q=1)) IM(eps(q=1) RE(eps(q=2) ) ... DOS   IDOS
  0.000   13.1670    0.0000   13.1545    0.0000   12.7562    0.0000   12.7473    0.0000   13.0011    0.0000   13.0993    0.0000    0.0000    0.0000
  0.020   13.1674    0.0058   13.1549    0.0058   12.7566    0.0054   12.7477    0.0054   13.0015    0.0057   13.0997    0.0057    0.0000    0.0000
  0.040   13.1685    0.0116   13.1560    0.0116   12.7577    0.0108   12.7488    0.0108   13.0026    0.0113   13.1009    0.0115    0.0000    0.0000
  0.060   13.1704    0.0174   13.1579    0.0174   12.7595    0.0163   12.7506    0.0162   13.0045    0.0170   13.1028    0.0173    0.0000    0.0000
  0.080   13.1731    0.0232   13.1606    0.0232   12.7620    0.0217   12.7531    0.0216   13.0071    0.0227   13.1054    0.0230    0.0000    0.0000
  0.100   13.1766    0.0291   13.1641    0.0290   12.7652    0.0271   12.7563    0.0270   13.0105    0.0283   13.1089    0.0288    0.0000    0.0000
  0.120   13.1808    0.0349   13.1683    0.0348   12.7691    0.0326   12.7602    0.0324   13.0146    0.0340   13.1130    0.0346    0.0000    0.0000
  0.140   13.1858    0.0408   13.1733    0.0407   12.7738    0.0381   12.7648    0.0378   13.0195    0.0398   13.1180    0.0404    0.0000    0.0000
  0.160   13.1916    0.0466   13.1790    0.0465   12.7792    0.0435   12.7702    0.0433   13.0251    0.0455   13.1237    0.0462    0.0000    0.0000
  0.180   13.1981    0.0525   13.1856    0.0524   12.7853    0.0490   12.7763    0.0488   13.0315    0.0512   13.1302    0.0520    0.0000    0.0000
  0.200   13.2055    0.0584   13.1929    0.0583   12.7922    0.0546   12.7831    0.0543   13.0387    0.0570   13.1375    0.0579    0.0000    0.0000
  0.220   13.2136    0.0644   13.2010    0.0643   12.7998    0.0601   12.7907    0.0598   13.0466    0.0628   13.1455    0.0638    0.0000    0.0000
  0.240   13.2225    0.0703   13.2099    0.0702   12.8081    0.0657   12.7989    0.0653   13.0553    0.0686   13.1544    0.0697    0.0000    0.0000
  0.260   13.2322    0.0763   13.2196    0.0762   12.8171    0.0713   12.8079    0.0709   13.0647    0.0745   13.1640    0.0756    0.0000    0.0000
  0.280   13.2427    0.0824   13.2301    0.0822   12.8269    0.0769   12.8177    0.0765   13.0750    0.0803   13.1744    0.0816    0.0000    0.0000
  0.300   13.2540    0.0885   13.2413    0.0883   12.8375    0.0826   12.8282    0.0821   13.0860    0.0863   13.1855    0.0876    0.0000    0.0000
  0.320   13.2661    0.0946   13.2534    0.0944   12.8488    0.0883   12.8394    0.0878   13.0978    0.0922   13.1975    0.0937    0.0000    0.0000
  0.340   13.2790    0.1007   13.2663    0.1005   12.8608    0.0940   12.8514    0.0935   13.1104    0.0982   13.2103    0.0998    0.0000    0.0000
  0.360   13.2927    0.1069   13.2800    0.1067   12.8737    0.0998   12.8641    0.0992   13.1238    0.1043   13.2239    0.1059    0.0000    0.0000
  0.380   13.3073    0.1132   13.2945    0.1130   12.8872    0.1056   12.8776    0.1050   13.1380    0.1104   13.2383    0.1121    0.0000    0.0000
  0.400   13.3226    0.1195   13.3099    0.1192   12.9016    0.1115   12.8919    0.1108   13.1529    0.1165   13.2536    0.1184    0.0000    0.0000
  0.420   13.3388    0.1258   13.3260    0.1256   12.9167    0.1174   12.9069    0.1167   13.1688    0.1227   13.2696    0.1246    0.0000    0.0000
  0.440   13.3559    0.1322   13.3431    0.1320   12.9326    0.1233   12.9228    0.1226   13.1854    0.1289   13.2865    0.1310    0.0000    0.0000
  0.460   13.3738    0.1387   13.3609    0.1385   12.9493    0.1294   12.9394    0.1286   13.2028    0.1352   13.3042    0.1374    0.0000    0.0000
  0.480   13.3926    0.1452   13.3797    0.1450   12.9668    0.1354   12.9568    0.1346   13.2211    0.1416   13.3228    0.1439    0.0000    0.0000
  0.500   13.4122    0.1518   13.3992    0.1516   12.9851    0.1416   12.9750    0.1407   13.2403    0.1480   13.3423    0.1504    0.0000    0.0000
  0.520   13.4327    0.1585   13.4197    0.1582   13.0043    0.1478   12.9940    0.1469   13.2603    0.1546   13.3626    0.1570    0.0000    0.0000
  0.540   13.4541    0.1653   13.4411    0.1650   13.0242    0.1541   13.0138    0.1531   13.2811    0.1611   13.3838    0.1637    0.0000    0.0000
  0.560   13.4764    0.1721   13.4633    0.1718   13.0450    0.1604   13.0345    0.1594   13.3029    0.1678   13.4059    0.1705    0.0000    0.0000
  0.580   13.4996    0.1790   13.4865    0.1787   13.0666    0.1668   13.0560    0.1658   13.3255    0.1745   13.4288    0.1773    0.0000    0.0000
  0.600   13.5237    0.1860   13.5105    0.1857   13.0891    0.1733   13.0783    0.1723   13.3490    0.1813   13.4527    0.1843    0.0000    0.0000
  0.620   13.5487    0.1931   13.5355    0.1928   13.1124    0.1799   13.1015    0.1788   13.3734    0.1882   13.4775    0.1913    0.0000    0.0000
  0.640   13.5747    0.2003   13.5615    0.1999   13.1366    0.1865   13.1256    0.1854   13.3987    0.1952   13.5033    0.1984    0.0000    0.0000
  0.660   13.6016    0.2076   13.5884    0.2072   13.1617    0.1933   13.1505    0.1921   13.4250    0.2023   13.5300    0.2056    0.0000    0.0000
  0.680   13.6295    0.2150   13.6162    0.2146   13.1877    0.2001   13.1763    0.1989   13.4522    0.2095   13.5576    0.2129    0.0000    0.0000
  0.700   13.6584    0.2225   13.6450    0.2221   13.2146    0.2071   13.2031    0.2058   13.4803    0.2168   13.5862    0.2204    0.0000    0.0000
  0.720   13.6883    0.2301   13.6749    0.2297   13.2424    0.2141   13.2307    0.2127   13.5094    0.2242   13.6158    0.2279    0.0000    0.0000
  0.740   13.7192    0.2378   13.7057    0.2374   13.2712    0.2213   13.2593    0.2198   13.5395    0.2317   13.6464    0.2356    0.0000    0.0000
  0.760   13.7511    0.2457   13.7375    0.2452   13.3009    0.2285   13.2888    0.2270   13.5706    0.2393   13.6780    0.2433    0.0000    0.0000
  0.780   13.7841    0.2537   13.7704    0.2532   13.3316    0.2359   13.3193    0.2343   13.6027    0.2471   13.7106    0.2512    0.0000    0.0000
  0.800   13.8181    0.2618   13.8044    0.2613   13.3632    0.2434   13.3507    0.2418   13.6359    0.2550   13.7443    0.2593    0.0000    0.0000
  0.820   13.8532    0.2700   13.8394    0.2695   13.3958    0.2510   13.3831    0.2493   13.6701    0.2630   13.7791    0.2674    0.0000    0.0000
  0.840   13.8894    0.2784   13.8755    0.2779   13.4295    0.2587   13.4165    0.2570   13.7053    0.2712   13.8149    0.2758    0.0000    0.0000
  0.860   13.9267    0.2870   13.9128    0.2864   13.4641    0.2666   13.4510    0.2648   13.7417    0.2795   13.8519    0.2842    0.0000    0.0000
  0.880   13.9651    0.2957   13.9511    0.2951   13.4999    0.2746   13.4865    0.2727   13.7791    0.2880   13.8899    0.2929    0.0000    0.0000
  0.900   14.0047    0.3046   13.9906    0.3040   13.5366    0.2828   13.5230    0.2808   13.8177    0.2966   13.9292    0.3017    0.0000    0.0000
  0.920   14.0455    0.3136   14.0313    0.3130   13.5745    0.2911   13.5606    0.2891   13.8574    0.3054   13.9695    0.3106    0.0000    0.0000
  0.940   14.0874    0.3229   14.0732    0.3223   13.6135    0.2996   13.5993    0.2975   13.8982    0.3143   14.0111    0.3198    0.0000    0.0000
  0.960   14.1306    0.3323   14.1163    0.3317   13.6536    0.3082   13.6391    0.3060   13.9403    0.3235   14.0539    0.3291    0.0000    0.0000
  0.980   14.1751    0.3419   14.1607    0.3413   13.6948    0.3170   13.6801    0.3148   13.9835    0.3328   14.0979    0.3386    0.0000    0.0000
  1.000   14.2208    0.3517   14.2063    0.3511   13.7372    0.3260   13.7222    0.3237   14.0280    0.3423   14.1432    0.3483    0.0000    0.0000
  1.020   14.2678    0.3618   14.2532    0.3611   13.7808    0.3352   13.7654    0.3328   14.0738    0.3521   14.1897    0.3583    0.0000    0.0000
  1.040   14.3161    0.3720   14.3015    0.3713   13.8256    0.3446   13.8099    0.3420   14.1209    0.3620   14.2376    0.3684    0.0000    0.0000
  1.060   14.3658    0.3825   14.3511    0.3818   13.8717    0.3542   13.8557    0.3515   14.1692    0.3722   14.2868    0.3788    0.0000    0.0000
  1.080   14.4169    0.3933   14.4021    0.3925   13.9190    0.3640   13.9026    0.3612   14.2189    0.3826   14.3374    0.3894    0.0000    0.0000
  1.100   14.4694    0.4043   14.4545    0.4035   13.9676    0.3740   13.9509    0.3711   14.2700    0.3932   14.3894    0.4003    0.0000    0.0000
  1.120   14.5234    0.4155   14.5083    0.4147   14.0176    0.3843   14.0005    0.3813   14.3225    0.4041   14.4429    0.4114    0.0000    0.0000
  1.140   14.5789    0.4270   14.5637    0.4262   14.0689    0.3948   14.0514    0.3916   14.3765    0.4153   14.4978    0.4228    0.0000    0.0000
  1.160   14.6358    0.4389   14.6206    0.4380   14.1216    0.4055   14.1037    0.4023   14.4319    0.4267   14.5542    0.4345    0.0000    0.0000
  1.180   14.6944    0.4510   14.6790    0.4501   14.1757    0.4165   14.1574    0.4131   14.4888    0.4384   14.6121    0.4465    0.0000    0.0000
  1.200   14.7545    0.4634   14.7390    0.4625   14.2313    0.4278   14.2125    0.4243   14.5473    0.4505   14.6717    0.4588    0.0000    0.0000
  1.220   14.8163    0.4762   14.8007    0.4752   14.2883    0.4394   14.2691    0.4357   14.6074    0.4628   14.7329    0.4715    0.0000    0.0000
  1.240   14.8798    0.4893   14.8640    0.4883   14.3469    0.4513   14.3272    0.4474   14.6691    0.4755   14.7957    0.4844    0.0000    0.0000
  1.260   14.9450    0.5028   14.9291    0.5017   14.4071    0.4635   14.3869    0.4595   14.7324    0.4885   14.8603    0.4978    0.0000    0.0000
  1.280   15.0119    0.5166   14.9959    0.5155   14.4689    0.4760   14.4481    0.4718   14.7975    0.5019   14.9266    0.5115    0.0000    0.0000
  1.300   15.0807    0.5309   15.0646    0.5298   14.5323    0.4888   14.5110    0.4845   14.8644    0.5157   14.9947    0.5256    0.0000    0.0000
  1.320   15.1514    0.5455   15.1351    0.5444   14.5974    0.5021   14.5756    0.4975   14.9330    0.5298   15.0647    0.5401    0.0000    0.0000
  1.340   15.2240    0.5606   15.2076    0.5594   14.6643    0.5157   14.6419    0.5109   15.0036    0.5444   15.1366    0.5550    0.0000    0.0000
  1.360   15.2986    0.5762   15.2820    0.5750   14.7330    0.5297   14.7099    0.5247   15.0760    0.5594   15.2104    0.5704    0.0000    0.0000
  1.380   15.3753    0.5922   15.3585    0.5910   14.8035    0.5441   14.7798    0.5389   15.1504    0.5749   15.2863    0.5863    0.0000    0.0000
  1.400   15.4540    0.6088   15.4371    0.6075   14.8759    0.5589   14.8515    0.5535   15.2269    0.5908   15.3642    0.6026    0.0000    0.0000
  1.420   15.5349    0.6258   15.5178    0.6245   14.9502    0.5742   14.9252    0.5686   15.3054    0.6073   15.4443    0.6195    0.0000    0.0000
  1.440   15.6181    0.6435   15.6008    0.6421   15.0266    0.5900   15.0008    0.5841   15.3862    0.6243   15.5267    0.6370    0.0000    0.0000
  1.460   15.7036    0.6617   15.6861    0.6602   15.1050    0.6063   15.0785    0.6001   15.4691    0.6418   15.6113    0.6550    0.0000    0.0000
  1.480   15.7914    0.6805   15.7738    0.6790   15.1856    0.6231   15.1583    0.6167   15.5544    0.6600   15.6983    0.6736    0.0000    0.0000
  1.500   15.8818    0.7000   15.8639    0.6985   15.2684    0.6405   15.2402    0.6337   15.6420    0.6787   15.7877    0.6929    0.0000    0.0000
  1.520   15.9747    0.7202   15.9566    0.7186   15.3535    0.6585   15.3244    0.6514   15.7321    0.6981   15.8796    0.7129    0.0000    0.0000
  1.540   16.0702    0.7411   16.0519    0.7394   15.4409    0.6771   15.4109    0.6696   15.8247    0.7182   15.9742    0.7336    0.0000    0.0000
  1.560   16.1684    0.7628   16.1499    0.7611   15.5307    0.6963   15.4998    0.6885   15.9199    0.7391   16.0714    0.7550    0.0000    0.0000
  1.580   16.2695    0.7853   16.2508    0.7835   15.6231    0.7162   15.5912    0.7080   16.0179    0.7607   16.1714    0.7773    0.0000    0.0000
  1.600   16.3735    0.8086   16.3545    0.8067   15.7181    0.7369   15.6851    0.7282   16.1186    0.7831   16.2744    0.8003    0.0000    0.0000
  1.620   16.4805    0.8328   16.4613    0.8309   15.8157    0.7583   15.7816    0.7492   16.2223    0.8064   16.3803    0.8243    0.0000    0.0000
  1.640   16.5907    0.8581   16.5713    0.8561   15.9162    0.7805   15.8809    0.7710   16.3291    0.8306   16.4894    0.8493    0.0000    0.0000
  1.660   16.7042    0.8843   16.6845    0.8822   16.0195    0.8036   15.9830    0.7935   16.4389    0.8557   16.6017    0.8753    0.0000    0.0000
  1.680   16.8210    0.9116   16.8010    0.9095   16.1259    0.8277   16.0881    0.8170   16.5520    0.8819   16.7173    0.9023    0.0000    0.0000
  1.700   16.9414    0.9401   16.9211    0.9379   16.2353    0.8526   16.1962    0.8414   16.6686    0.9092   16.8365    0.9305    0.0000    0.0000
  1.720   17.0655    0.9698   17.0449    0.9675   16.3480    0.8787   16.3075    0.8668   16.7886    0.9377   16.9593    0.9599    0.0000    0.0000
  1.740   17.1934    1.0009   17.1725    0.9984   16.4641    0.9058   16.4220    0.8932   16.9123    0.9674   17.0859    0.9906    0.0000    0.0000
  1.760   17.3253    1.0333   17.3041    1.0308   16.5836    0.9341   16.5400    0.9208   17.0398    0.9985   17.2164    1.0228    0.0000    0.0000
  1.780   17.4613    1.0672   17.4398    1.0646   16.7068    0.9636   16.6616    0.9495   17.1714    1.0309   17.3510    1.0564    0.0000    0.0000
  1.800   17.6017    1.1028   17.5799    1.1000   16.8338    0.9945   16.7868    0.9795   17.3070    1.0649   17.4900    1.0916    0.0000    0.0000
  1.820   17.7466    1.1400   17.7244    1.1372   16.9648    1.0267   16.9159    1.0108   17.4471    1.1005   17.6334    1.1285    0.0000    0.0000
  1.840   17.8963    1.1791   17.8737    1.1761   17.0999    1.0606   17.0490    1.0436   17.5916    1.1378   17.7816    1.1672    0.0000    0.0000
  1.860   18.0509    1.2202   18.0280    1.2171   17.2393    1.0960   17.1863    1.0780   17.7409    1.1770   17.9346    1.2079    0.0000    0.0000
  1.880   18.2108    1.2634   18.1874    1.2602   17.3832    1.1332   17.3280    1.1140   17.8952    1.2183   18.0928    1.2507    0.0000    0.0000
  1.900   18.3761    1.3089   18.3523    1.3055   17.5319    1.1723   17.4743    1.1517   18.0547    1.2617   18.2564    1.2959    0.0000    0.0000
  1.920   18.5471    1.3570   18.5229    1.3534   17.6854    1.2134   17.6254    1.1914   18.2196    1.3074   18.4256    1.3435    0.0000    0.0000
  1.940   18.7241    1.4077   18.6994    1.4039   17.8442    1.2567   17.7815    1.2332   18.3903    1.3557   18.6008    1.3938    0.0000    0.0000
  1.960   18.9074    1.4613   18.8823    1.4573   18.0084    1.3024   17.9429    1.2771   18.5670    1.4067   18.7823    1.4470    0.0000    0.0000
  1.980   19.0974    1.5181   19.0717    1.5140   18.1783    1.3506   18.1098    1.3235   18.7500    1.4607   18.9703    1.5034    0.0000    0.0000
  2.000   19.2943    1.5783   19.2682    1.5740   18.3542    1.4016   18.2825    1.3724   18.9397    1.5180   19.1653    1.5633    0.0000    0.0000
  2.020   19.4987    1.6424   19.4720    1.6378   18.5363    1.4557   18.4613    1.4242   19.1364    1.5788   19.3675    1.6269    0.0000    0.0000
  2.040   19.7108    1.7105   19.6835    1.7057   18.7252    1.5131   18.6465    1.4790   19.3406    1.6435   19.5775    1.6946    0.0000    0.0000
  2.060   19.9312    1.7832   19.9033    1.7781   18.9210    1.5740   18.8384    1.5372   19.5525    1.7125   19.7957    1.7670    0.0000    0.0000
  2.080   20.1603    1.8609   20.1317    1.8555   19.1242    1.6390   19.0375    1.5990   19.7728    1.7861   20.0224    1.8443    0.0000    0.0000
  2.100   20.3986    1.9441   20.3694    1.9384   19.3353    1.7083   19.2441    1.6648   20.0017    1.8649   20.2583    1.9271    0.0000    0.0000
  2.120   20.6466    2.0333   20.6167    2.0273   19.5545    1.7824   19.4586    1.7349   20.2400    1.9494   20.5039    2.0161    0.0001    0.0000
  2.140   20.9050    2.1293   20.8744    2.1229   19.7825    1.8618   19.6815    1.8099   20.4881    2.0401   20.7597    2.1119    0.0002    0.0000
  2.160   21.1744    2.2328   21.1430    2.2260   20.0198    1.9471   19.9133    1.8902   20.7466    2.1379   21.0264    2.2152    0.0003    0.0000
  2.180   21.4555    2.3446   21.4232    2.3374   20.2668    2.0389   20.1545    1.9763   21.0162    2.2436   21.3046    2.3271    0.0007    0.0000
  2.200   21.7490    2.4659   21.7158    2.4581   20.5242    2.1381   20.4057    2.0690   21.2975    2.3580   21.5951    2.4484    0.0013    0.0000
  2.220   22.0556    2.5976   22.0215    2.5894   20.7925    2.2454   20.6675    2.1689   21.5913    2.4823   21.8985    2.5805    0.0025    0.0000
  2.240   22.3762    2.7413   22.3411    2.7325   21.0725    2.3619   20.9404    2.2770   21.8983    2.6177   22.2157    2.7248    0.0045    0.0000
  2.260   22.7116    2.8985   22.6755    2.8890   21.3648    2.4888   21.2253    2.3941   22.2193    2.7657   22.5474    2.8828    0.0079    0.0000
  2.280   23.0627    3.0710   23.0255    3.0608   21.6702    2.6274   21.5228    2.5215   22.5551    2.9281   22.8944    3.0566    0.0136    0.0000
  2.300   23.4304    3.2610   23.3920    3.2500   21.9892    2.7795   21.8338    2.6605   22.9067    3.1068   23.2575    3.2484    0.0225    0.0000
  2.320   23.8154    3.4712   23.7758    3.4593   22.3226    2.9468   22.1590    2.8126   23.2746    3.3043   23.6373    3.4609    0.0364    0.0001
  2.340   24.2186    3.7045   24.1777    3.6916   22.6710    3.1317   22.4991    2.9797   23.6598    3.5235   24.0343    3.6972    0.0573    0.0001
  2.360   24.6406    3.9645   24.5983    3.9505   23.0349    3.3368   22.8552    3.1640   24.0627    3.7676   24.4488    3.9611    0.0879    0.0002
  2.380   25.0816    4.2554   25.0378    4.2402   23.4145    3.5651   23.2278    3.3680   24.4836    4.0408   24.8806    4.2567    0.1316    0.0003
  2.400   25.5415    4.5822   25.4963    4.5657   23.8098    3.8202   23.6176    3.5948   24.9225    4.3476   25.3289    4.5890    0.1928    0.0004
  2.420   26.0197    4.9505   25.9728    4.9325   24.2203    4.1061   24.0253    3.8479   25.3786    4.6935   25.7921    4.9634    0.2769    0.0006
  2.440   26.5144    5.3669   26.4659    5.3472   24.6447    4.4275   24.4508    4.1317   25.8502    5.0847   26.2673    5.3856    0.3903    0.0009
  2.460   27.0228    5.8385   26.9725    5.8170   25.0809    4.7891   24.8939    4.4513   26.3344    5.5284   26.7508    5.8616    0.5408    0.0013
  2.480   27.5406    6.3730   27.4884    6.3496   25.5260    5.1962   25.3535    4.8126   26.8264    6.0319   27.2373    6.3968    0.7375    0.0018
  2.500   28.0619    6.9787   28.0075    6.9532   25.9758    5.6539   25.8274    5.2224   27.3196    6.6029   27.7210    6.9967    0.9908    0.0026
  2.520   28.5788    7.6641   28.5218    7.6362   26.4251    6.1673   26.3117    5.6886   27.8051    7.2486   28.1956    7.6664    1.3112    0.0035
  2.540   29.0812    8.4382   29.0211    8.4075   26.8679    6.7416   26.8003    6.2196   28.2717    7.9752   28.6543    8.4122    1.7094    0.0048
  2.560   29.5558    9.3104   29.4919    9.2763   27.2966    7.3823   27.2840    6.8238   28.7069    8.7879   29.0883    9.2430    2.1936    0.0064
  2.580   29.9848   10.2907   29.9164   10.2519   27.7011    8.0953   27.7502    7.5088   29.0960    9.6919   29.4837   10.1697    2.7686    0.0084
