# GW Macroscopic dielectric function without local field effects 
# Scissor operator energy =  0.8000 [eV]
# Tolerance =  0.0200 0.0200
# npweps  = 59
# npwwfn  = 137
# nbands  = 6
# loband  = 2
# nkibz   = 512
# nkbz    = 512
# Lorentzian broadening =  0.1500 [eV]
# List of q-points for the optical limit:
# q =  0.938821, 0.000000, 0.000000, [Reduced coords] 
# q =  0.000000, 0.938821, 0.000000, [Reduced coords] 
# q =  0.000000, 0.000000, 0.938821, [Reduced coords] 
# q =  0.000000, 0.813043, 0.813043, [Reduced coords] 
# q =  0.813043, 0.000000, 0.813043, [Reduced coords] 
# q =  0.813043, 0.813043, 0.000000, [Reduced coords] 
# omega [eV]    RE(eps(q=1)) IM(eps(q=1) RE(eps(q=2) ) ... DOS   IDOS
  0.000   10.9816    0.0000   10.9719    0.0000   10.6712    0.0000   10.6670    0.0000   10.8547    0.0000   10.9295    0.0000    0.0000    0.0000
  0.020   10.9818    0.0031   10.9721    0.0031   10.6714    0.0029   10.6672    0.0029   10.8549    0.0030   10.9297    0.0031    0.0000    0.0000
  0.040   10.9824    0.0062   10.9728    0.0062   10.6720    0.0058   10.6678    0.0058   10.8555    0.0060   10.9303    0.0061    0.0000    0.0000
  0.060   10.9834    0.0092   10.9738    0.0092   10.6729    0.0087   10.6687    0.0087   10.8565    0.0091   10.9314    0.0092    0.0000    0.0000
  0.080   10.9848    0.0123   10.9752    0.0123   10.6743    0.0116   10.6701    0.0116   10.8579    0.0121   10.9328    0.0122    0.0000    0.0000
  0.100   10.9867    0.0154   10.9770    0.0154   10.6760    0.0146   10.6718    0.0145   10.8597    0.0151   10.9346    0.0153    0.0000    0.0000
  0.120   10.9889    0.0185   10.9793    0.0185   10.6781    0.0175   10.6739    0.0174   10.8619    0.0181   10.9368    0.0184    0.0000    0.0000
  0.140   10.9916    0.0216   10.9820    0.0216   10.6807    0.0204   10.6764    0.0203   10.8645    0.0212   10.9395    0.0214    0.0000    0.0000
  0.160   10.9947    0.0247   10.9850    0.0247   10.6836    0.0233   10.6793    0.0232   10.8675    0.0242   10.9425    0.0245    0.0000    0.0000
  0.180   10.9981    0.0278   10.9885    0.0278   10.6868    0.0263   10.6826    0.0262   10.8709    0.0272   10.9460    0.0276    0.0000    0.0000
  0.200   11.0020    0.0310   10.9924    0.0309   10.6905    0.0292   10.6863    0.0291   10.8747    0.0303   10.9498    0.0307    0.0000    0.0000
  0.220   11.0064    0.0341   10.9967    0.0340   10.6946    0.0322   10.6903    0.0320   10.8789    0.0334   10.9541    0.0338    0.0000    0.0000
  0.240   11.0111    0.0372   11.0014    0.0372   10.6991    0.0351   10.6948    0.0350   10.8836    0.0364   10.9588    0.0369    0.0000    0.0000
  0.260   11.0162    0.0404   11.0066    0.0403   10.7039    0.0381   10.6996    0.0379   10.8886    0.0395   10.9639    0.0400    0.0000    0.0000
  0.280   11.0218    0.0435   11.0121    0.0435   10.7092    0.0411   10.7048    0.0409   10.8940    0.0426   10.9694    0.0432    0.0000    0.0000
  0.300   11.0278    0.0467   11.0181    0.0466   10.7148    0.0441   10.7105    0.0439   10.8999    0.0457   10.9754    0.0463    0.0000    0.0000
  0.320   11.0342    0.0499   11.0245    0.0498   10.7209    0.0471   10.7165    0.0469   10.9062    0.0488   10.9817    0.0495    0.0000    0.0000
  0.340   11.0410    0.0531   11.0313    0.0530   10.7273    0.0501   10.7229    0.0499   10.9129    0.0519   10.9885    0.0526    0.0000    0.0000
  0.360   11.0483    0.0563   11.0385    0.0562   10.7341    0.0531   10.7297    0.0529   10.9199    0.0551   10.9957    0.0558    0.0000    0.0000
  0.380   11.0559    0.0595   11.0462    0.0594   10.7414    0.0561   10.7369    0.0559   10.9275    0.0582   11.0033    0.0590    0.0000    0.0000
  0.400   11.0640    0.0628   11.0543    0.0627   10.7490    0.0592   10.7446    0.0590   10.9354    0.0614   11.0113    0.0622    0.0000    0.0000
  0.420   11.0726    0.0660   11.0628    0.0659   10.7571    0.0623   10.7526    0.0620   10.9438    0.0646   11.0198    0.0655    0.0000    0.0000
  0.440   11.0816    0.0693   11.0718    0.0692   10.7656    0.0654   10.7610    0.0651   10.9525    0.0678   11.0287    0.0687    0.0000    0.0000
  0.460   11.0910    0.0726   11.0812    0.0725   10.7744    0.0685   10.7699    0.0682   10.9617    0.0710   11.0380    0.0720    0.0000    0.0000
  0.480   11.1008    0.0759   11.0910    0.0758   10.7837    0.0716   10.7791    0.0713   10.9714    0.0743   11.0478    0.0753    0.0000    0.0000
  0.500   11.1111    0.0793   11.1013    0.0791   10.7934    0.0748   10.7888    0.0745   10.9815    0.0776   11.0580    0.0786    0.0000    0.0000
  0.520   11.1218    0.0826   11.1120    0.0825   10.8036    0.0779   10.7989    0.0776   10.9920    0.0808   11.0686    0.0819    0.0000    0.0000
  0.540   11.1330    0.0860   11.1232    0.0859   10.8141    0.0811   10.8094    0.0808   11.0029    0.0842   11.0797    0.0853    0.0000    0.0000
  0.560   11.1447    0.0894   11.1348    0.0893   10.8251    0.0843   10.8203    0.0840   11.0143    0.0875   11.0913    0.0887    0.0000    0.0000
  0.580   11.1567    0.0929   11.1469    0.0927   10.8365    0.0876   10.8317    0.0872   11.0261    0.0909   11.1033    0.0921    0.0000    0.0000
  0.600   11.1693    0.0963   11.1594    0.0962   10.8483    0.0908   10.8434    0.0905   11.0384    0.0942   11.1157    0.0955    0.0000    0.0000
  0.620   11.1823    0.0998   11.1724    0.0997   10.8606    0.0941   10.8557    0.0937   11.0511    0.0977   11.1286    0.0990    0.0000    0.0000
  0.640   11.1958    0.1034   11.1858    0.1032   10.8733    0.0974   10.8683    0.0970   11.0643    0.1011   11.1419    0.1025    0.0000    0.0000
  0.660   11.2097    0.1069   11.1997    0.1067   10.8864    0.1008   10.8814    0.1004   11.0779    0.1046   11.1558    0.1060    0.0000    0.0000
  0.680   11.2241    0.1105   11.2141    0.1103   10.9000    0.1041   10.8949    0.1037   11.0920    0.1081   11.1701    0.1096    0.0000    0.0000
  0.700   11.2390    0.1141   11.2290    0.1139   10.9140    0.1075   10.9089    0.1071   11.1066    0.1116   11.1848    0.1131    0.0000    0.0000
  0.720   11.2544    0.1178   11.2443    0.1176   10.9285    0.1110   10.9233    0.1105   11.1216    0.1152   11.2001    0.1168    0.0000    0.0000
  0.740   11.2702    0.1214   11.2602    0.1213   10.9435    0.1144   10.9382    0.1140   11.1371    0.1188   11.2158    0.1204    0.0000    0.0000
  0.760   11.2866    0.1252   11.2765    0.1250   10.9589    0.1179   10.9535    0.1174   11.1531    0.1224   11.2320    0.1241    0.0000    0.0000
  0.780   11.3034    0.1289   11.2933    0.1287   10.9747    0.1214   10.9694    0.1209   11.1696    0.1261   11.2487    0.1278    0.0000    0.0000
  0.800   11.3208    0.1327   11.3106    0.1325   10.9911    0.1250   10.9856    0.1245   11.1866    0.1298   11.2659    0.1316    0.0000    0.0000
  0.820   11.3386    0.1366   11.3284    0.1364   11.0079    0.1286   11.0024    0.1281   11.2040    0.1336   11.2836    0.1354    0.0000    0.0000
  0.840   11.3570    0.1405   11.3468    0.1402   11.0252    0.1323   11.0196    0.1317   11.2220    0.1374   11.3018    0.1393    0.0000    0.0000
  0.860   11.3759    0.1444   11.3656    0.1442   11.0429    0.1359   11.0373    0.1354   11.2404    0.1412   11.3205    0.1432    0.0000    0.0000
  0.880   11.3953    0.1484   11.3850    0.1481   11.0612    0.1397   11.0555    0.1391   11.2594    0.1451   11.3397    0.1471    0.0000    0.0000
  0.900   11.4152    0.1524   11.4049    0.1521   11.0800    0.1434   11.0742    0.1428   11.2789    0.1490   11.3595    0.1511    0.0000    0.0000
  0.920   11.4356    0.1565   11.4253    0.1562   11.0992    0.1472   11.0934    0.1466   11.2989    0.1530   11.3798    0.1551    0.0000    0.0000
  0.940   11.4567    0.1606   11.4463    0.1603   11.1190    0.1511   11.1130    0.1504   11.3195    0.1570   11.4006    0.1592    0.0000    0.0000
  0.960   11.4782    0.1647   11.4678    0.1645   11.1393    0.1550   11.1332    0.1543   11.3405    0.1611   11.4220    0.1633    0.0000    0.0000
  0.980   11.5003    0.1690   11.4899    0.1687   11.1601    0.1589   11.1540    0.1583   11.3621    0.1652   11.4439    0.1675    0.0000    0.0000
  1.000   11.5230    0.1732   11.5125    0.1730   11.1814    0.1629   11.1752    0.1622   11.3843    0.1694   11.4664    0.1717    0.0000    0.0000
  1.020   11.5462    0.1776   11.5357    0.1773   11.2033    0.1670   11.1970    0.1663   11.4070    0.1736   11.4894    0.1760    0.0000    0.0000
  1.040   11.5701    0.1820   11.5595    0.1817   11.2257    0.1711   11.2193    0.1703   11.4303    0.1779   11.5130    0.1804    0.0000    0.0000
  1.060   11.5945    0.1864   11.5839    0.1861   11.2486    0.1753   11.2421    0.1745   11.4542    0.1822   11.5372    0.1848    0.0000    0.0000
  1.080   11.6195    0.1910   11.6088    0.1906   11.2721    0.1795   11.2655    0.1787   11.4786    0.1866   11.5620    0.1893    0.0000    0.0000
  1.100   11.6451    0.1955   11.6344    0.1952   11.2962    0.1838   11.2895    0.1829   11.5036    0.1911   11.5874    0.1938    0.0000    0.0000
  1.120   11.6713    0.2002   11.6605    0.1999   11.3208    0.1881   11.3140    0.1872   11.5293    0.1957   11.6134    0.1984    0.0000    0.0000
  1.140   11.6981    0.2049   11.6873    0.2046   11.3461    0.1925   11.3391    0.1916   11.5555    0.2003   11.6400    0.2031    0.0000    0.0000
  1.160   11.7255    0.2097   11.7147    0.2094   11.3719    0.1970   11.3648    0.1961   11.5823    0.2049   11.6672    0.2079    0.0000    0.0000
  1.180   11.7536    0.2146   11.7428    0.2142   11.3982    0.2015   11.3910    0.2006   11.6098    0.2097   11.6950    0.2127    0.0000    0.0000
  1.200   11.7824    0.2195   11.7715    0.2192   11.4252    0.2061   11.4179    0.2051   11.6379    0.2145   11.7235    0.2176    0.0000    0.0000
  1.220   11.8118    0.2246   11.8008    0.2242   11.4529    0.2108   11.4454    0.2098   11.6666    0.2194   11.7527    0.2226    0.0000    0.0000
  1.240   11.8419    0.2297   11.8308    0.2293   11.4811    0.2155   11.4735    0.2145   11.6960    0.2244   11.7825    0.2276    0.0000    0.0000
  1.260   11.8726    0.2349   11.8615    0.2345   11.5099    0.2204   11.5022    0.2193   11.7260    0.2294   11.8129    0.2328    0.0000    0.0000
  1.280   11.9041    0.2401   11.8929    0.2397   11.5395    0.2253   11.5316    0.2242   11.7567    0.2346   11.8441    0.2380    0.0000    0.0000
  1.300   11.9362    0.2455   11.9250    0.2451   11.5696    0.2303   11.5616    0.2291   11.7881    0.2398   11.8760    0.2433    0.0000    0.0000
  1.320   11.9691    0.2510   11.9578    0.2505   11.6004    0.2353   11.5923    0.2342   11.8202    0.2451   11.9085    0.2487    0.0000    0.0000
  1.340   12.0026    0.2565   11.9914    0.2561   11.6319    0.2405   11.6236    0.2393   11.8530    0.2505   11.9418    0.2542    0.0000    0.0000
  1.360   12.0370    0.2622   12.0256    0.2617   11.6641    0.2457   11.6556    0.2445   11.8866    0.2560   11.9758    0.2598    0.0000    0.0000
  1.380   12.0720    0.2679   12.0606    0.2675   11.6970    0.2511   11.6884    0.2498   11.9208    0.2616   12.0106    0.2656    0.0000    0.0000
  1.400   12.1079    0.2738   12.0964    0.2733   11.7306    0.2565   11.7218    0.2552   11.9558    0.2674   12.0461    0.2714    0.0000    0.0000
  1.420   12.1445    0.2798   12.1330    0.2793   11.7649    0.2620   11.7559    0.2607   11.9916    0.2732   12.0824    0.2773    0.0000    0.0000
  1.440   12.1819    0.2859   12.1703    0.2854   11.8000    0.2677   11.7908    0.2663   12.0281    0.2791   12.1195    0.2833    0.0000    0.0000
  1.460   12.2202    0.2921   12.2085    0.2916   11.8358    0.2734   11.8264    0.2720   12.0654    0.2851   12.1574    0.2895    0.0000    0.0000
  1.480   12.2592    0.2984   12.2475    0.2979   11.8723    0.2793   11.8628    0.2778   12.1036    0.2913   12.1961    0.2957    0.0000    0.0000
  1.500   12.2991    0.3049   12.2873    0.3044   11.9097    0.2852   11.8999    0.2837   12.1425    0.2976   12.2356    0.3021    0.0000    0.0000
  1.520   12.3399    0.3115   12.3280    0.3109   11.9478    0.2913   11.9379    0.2897   12.1823    0.3040   12.2760    0.3087    0.0000    0.0000
  1.540   12.3815    0.3182   12.3696    0.3177   11.9867    0.2975   11.9766    0.2959   12.2229    0.3105   12.3173    0.3153    0.0000    0.0000
  1.560   12.4240    0.3251   12.4120    0.3245   12.0265    0.3039   12.0161    0.3022   12.2644    0.3172   12.3594    0.3221    0.0000    0.0000
  1.580   12.4675    0.3321   12.4554    0.3315   12.0671    0.3103   12.0565    0.3086   12.3068    0.3240   12.4025    0.3291    0.0000    0.0000
  1.600   12.5118    0.3393   12.4997    0.3387   12.1086    0.3169   12.0978    0.3151   12.3501    0.3310   12.4464    0.3362    0.0000    0.0000
  1.620   12.5572    0.3466   12.5449    0.3460   12.1510    0.3237   12.1399    0.3218   12.3943    0.3381   12.4913    0.3434    0.0000    0.0000
  1.640   12.6035    0.3541   12.5911    0.3534   12.1942    0.3305   12.1829    0.3286   12.4395    0.3454   12.5372    0.3508    0.0000    0.0000
  1.660   12.6507    0.3617   12.6383    0.3611   12.2384    0.3376   12.2268    0.3356   12.4856    0.3528   12.5841    0.3584    0.0000    0.0000
  1.680   12.6990    0.3695   12.6865    0.3689   12.2834    0.3447   12.2716    0.3427   12.5327    0.3604   12.6319    0.3661    0.0000    0.0000
  1.700   12.7484    0.3776   12.7358    0.3769   12.3295    0.3521   12.3174    0.3500   12.5809    0.3681   12.6808    0.3741    0.0000    0.0000
  1.720   12.7988    0.3857   12.7861    0.3850   12.3765    0.3596   12.3641    0.3574   12.6300    0.3761   12.7308    0.3822    0.0000    0.0000
  1.740   12.8503    0.3941   12.8375    0.3934   12.4245    0.3673   12.4118    0.3650   12.6802    0.3842   12.7818    0.3905    0.0000    0.0000
  1.760   12.9029    0.4027   12.8900    0.4020   12.4736    0.3751   12.4606    0.3728   12.7315    0.3925   12.8339    0.3990    0.0000    0.0000
  1.780   12.9566    0.4115   12.9437    0.4108   12.5236    0.3832   12.5103    0.3807   12.7839    0.4011   12.8871    0.4077    0.0000    0.0000
  1.800   13.0115    0.4205   12.9985    0.4198   12.5748    0.3914   12.5612    0.3889   12.8374    0.4098   12.9415    0.4166    0.0000    0.0000
  1.820   13.0676    0.4298   13.0545    0.4290   12.6270    0.3999   12.6131    0.3972   12.8921    0.4188   12.9971    0.4257    0.0000    0.0000
  1.840   13.1250    0.4393   13.1117    0.4384   12.6804    0.4085   12.6661    0.4058   12.9479    0.4279   13.0539    0.4351    0.0000    0.0000
  1.860   13.1836    0.4490   13.1702    0.4481   12.7349    0.4174   12.7202    0.4145   13.0050    0.4374   13.1119    0.4447    0.0000    0.0000
  1.880   13.2434    0.4589   13.2299    0.4581   12.7905    0.4265   12.7755    0.4235   13.0634    0.4470   13.1712    0.4546    0.0000    0.0000
  1.900   13.3046    0.4692   13.2910    0.4683   12.8474    0.4358   12.8320    0.4327   13.1230    0.4569   13.2319    0.4647    0.0000    0.0000
  1.920   13.3672    0.4797   13.3534    0.4788   12.9055    0.4453   12.8897    0.4422   13.1839    0.4671   13.2938    0.4752    0.0000    0.0000
  1.940   13.4311    0.4905   13.4172    0.4896   12.9649    0.4552   12.9487    0.4519   13.2461    0.4776   13.3571    0.4858    0.0000    0.0000
  1.960   13.4965    0.5016   13.4825    0.5006   13.0256    0.4652   13.0089    0.4618   13.3098    0.4883   13.4219    0.4968    0.0000    0.0000
  1.980   13.5633    0.5130   13.5492    0.5120   13.0876    0.4756   13.0705    0.4721   13.3749    0.4993   13.4881    0.5081    0.0000    0.0000
  2.000   13.6316    0.5248   13.6174    0.5238   13.1510    0.4862   13.1334    0.4826   13.4414    0.5107   13.5558    0.5197    0.0000    0.0000
  2.020   13.7015    0.5369   13.6872    0.5358   13.2158    0.4972   13.1977    0.4933   13.5094    0.5224   13.6250    0.5317    0.0000    0.0000
  2.040   13.7730    0.5493   13.7585    0.5482   13.2820    0.5084   13.2635    0.5044   13.5790    0.5344   13.6958    0.5440    0.0000    0.0000
  2.060   13.8462    0.5621   13.8315    0.5610   13.3497    0.5200   13.3307    0.5159   13.6501    0.5468   13.7682    0.5567    0.0000    0.0000
  2.080   13.9210    0.5753   13.9062    0.5742   13.4190    0.5319   13.3994    0.5276   13.7229    0.5595   13.8423    0.5697    0.0000    0.0000
  2.100   13.9975    0.5889   13.9826    0.5877   13.4898    0.5441   13.4696    0.5397   13.7974    0.5726   13.9181    0.5832    0.0000    0.0000
  2.120   14.0759    0.6030   14.0608    0.6017   13.5622    0.5568   13.5415    0.5521   13.8736    0.5862   13.9957    0.5971    0.0000    0.0000
  2.140   14.1561    0.6174   14.1408    0.6162   13.6363    0.5698   13.6150    0.5649   13.9516    0.6002   14.0752    0.6114    0.0000    0.0000
  2.160   14.2382    0.6324   14.2228    0.6311   13.7122    0.5832   13.6902    0.5782   14.0314    0.6146   14.1565    0.6262    0.0000    0.0000
  2.180   14.3223    0.6478   14.3067    0.6465   13.7897    0.5971   13.7671    0.5918   14.1131    0.6294   14.2397    0.6415    0.0000    0.0000
  2.200   14.4084    0.6638   14.3926    0.6624   13.8691    0.6113   13.8458    0.6058   14.1968    0.6448   14.3250    0.6572    0.0000    0.0000
  2.220   14.4966    0.6802   14.4806    0.6788   13.9504    0.6261   13.9264    0.6203   14.2825    0.6607   14.4123    0.6735    0.0000    0.0000
  2.240   14.5869    0.6973   14.5708    0.6958   14.0337    0.6413   14.0089    0.6353   14.3703    0.6771   14.5018    0.6904    0.0000    0.0000
  2.260   14.6795    0.7149   14.6632    0.7134   14.1189    0.6571   14.0933    0.6508   14.4602    0.6941   14.5934    0.7079    0.0000    0.0000
  2.280   14.7744    0.7332   14.7579    0.7317   14.2062    0.6734   14.1798    0.6668   14.5524    0.7117   14.6874    0.7259    0.0000    0.0000
  2.300   14.8717    0.7522   14.8550    0.7505   14.2956    0.6902   14.2684    0.6833   14.6468    0.7299   14.7837    0.7447    0.0000    0.0000
  2.320   14.9715    0.7718   14.9545    0.7701   14.3873    0.7077   14.3592    0.7005   14.7437    0.7488   14.8825    0.7641    0.0000    0.0000
  2.340   15.0739    0.7922   15.0567    0.7904   14.4812    0.7258   14.4521    0.7182   14.8430    0.7684   14.9838    0.7843    0.0000    0.0000
  2.360   15.1789    0.8133   15.1614    0.8115   14.5775    0.7445   14.5475    0.7366   14.9449    0.7887   15.0878    0.8052    0.0000    0.0000
  2.380   15.2866    0.8353   15.2690    0.8334   14.6762    0.7639   14.6452    0.7556   15.0494    0.8098   15.1945    0.8269    0.0000    0.0000
  2.400   15.3972    0.8581   15.3793    0.8562   14.7775    0.7841   14.7454    0.7753   15.1567    0.8317   15.3040    0.8495    0.0000    0.0000
  2.420   15.5108    0.8818   15.4927    0.8798   14.8814    0.8050   14.8482    0.7958   15.2668    0.8545   15.4164    0.8730    0.0000    0.0000
  2.440   15.6275    0.9065   15.6091    0.9045   14.9880    0.8268   14.9536    0.8171   15.3799    0.8782   15.5319    0.8974    0.0000    0.0000
  2.460   15.7473    0.9323   15.7287    0.9302   15.0975    0.8494   15.0619    0.8392   15.4960    0.9029   15.6506    0.9229    0.0000    0.0000
  2.480   15.8705    0.9591   15.8516    0.9569   15.2099    0.8730   15.1730    0.8622   15.6154    0.9286   15.7725    0.9495    0.0000    0.0000
  2.500   15.9972    0.9871   15.9780    0.9848   15.3254    0.8975   15.2871    0.8862   15.7381    0.9554   15.8979    0.9772    0.0000    0.0000
  2.520   16.1275    1.0164   16.1080    1.0140   15.4440    0.9231   15.4043    0.9111   15.8642    0.9834   16.0269    1.0061    0.0000    0.0000
  2.540   16.2616    1.0469   16.2417    1.0445   15.5659    0.9498   15.5247    0.9371   15.9940    1.0127   16.1596    1.0364    0.0000    0.0000
  2.560   16.3996    1.0789   16.3794    1.0763   15.6913    0.9776   15.6485    0.9642   16.1275    1.0433   16.2962    1.0680    0.0000    0.0000
  2.580   16.5416    1.1124   16.5211    1.1097   15.8203    1.0067   15.7758    0.9925   16.2650    1.0753   16.4368    1.1012    0.0000    0.0000
