# RPA macroscopic dielectric function without local fields
# Tolerance =  0.0200 0.0200
# npweps  = 59
# npwwfn  = 137
# nbands  = 6
# loband  = 2
# nkibz   = 64
# nkbz    = 64
# Lorentzian broadening =  0.1500 [eV]
# List of q-points for the optical limit:
# q =  0.938821, 0.000000, 0.000000, [Reduced coords] 
# q =  0.000000, 0.938821, 0.000000, [Reduced coords] 
# q =  0.000000, 0.000000, 0.938821, [Reduced coords] 
# q =  0.000000, 0.813043, 0.813043, [Reduced coords] 
# q =  0.813043, 0.000000, 0.813043, [Reduced coords] 
# q =  0.813043, 0.813043, 0.000000, [Reduced coords] 
# omega [eV]    RE(eps(q=1)) IM(eps(q=1) RE(eps(q=2) ) ... DOS   IDOS
  0.000   17.3702    0.0000   17.1047    0.0000   13.9472    0.0000   13.2555    0.0000   16.4291    0.0000   16.8264    0.0000    0.0000    0.0000
  0.020   17.3708    0.0084   17.1052    0.0082   13.9476    0.0060   13.2559    0.0054   16.4296    0.0079   16.8270    0.0081    0.0000    0.0000
  0.040   17.3724    0.0168   17.1068    0.0165   13.9488    0.0121   13.2569    0.0108   16.4312    0.0157   16.8286    0.0162    0.0000    0.0000
  0.060   17.3752    0.0252   17.1095    0.0247   13.9508    0.0181   13.2587    0.0162   16.4338    0.0236   16.8312    0.0243    0.0000    0.0000
  0.080   17.3791    0.0336   17.1134    0.0329   13.9536    0.0242   13.2612    0.0217   16.4374    0.0315   16.8350    0.0324    0.0000    0.0000
  0.100   17.3841    0.0421   17.1183    0.0412   13.9572    0.0303   13.2645    0.0271   16.4421    0.0393   16.8398    0.0405    0.0000    0.0000
  0.120   17.3902    0.0505   17.1243    0.0495   13.9616    0.0364   13.2684    0.0325   16.4478    0.0473   16.8457    0.0486    0.0000    0.0000
  0.140   17.3975    0.0590   17.1313    0.0578   13.9668    0.0425   13.2731    0.0380   16.4546    0.0552   16.8527    0.0568    0.0000    0.0000
  0.160   17.4058    0.0675   17.1395    0.0661   13.9728    0.0486   13.2785    0.0435   16.4624    0.0631   16.8607    0.0650    0.0000    0.0000
  0.180   17.4153    0.0761   17.1488    0.0745   13.9797    0.0547   13.2846    0.0489   16.4713    0.0711   16.8698    0.0732    0.0000    0.0000
  0.200   17.4259    0.0847   17.1592    0.0829   13.9873    0.0609   13.2914    0.0544   16.4812    0.0791   16.8801    0.0815    0.0000    0.0000
  0.220   17.4377    0.0933   17.1707    0.0913   13.9958    0.0671   13.2990    0.0600   16.4922    0.0872   16.8914    0.0897    0.0000    0.0000
  0.240   17.4506    0.1019   17.1834    0.0998   14.0051    0.0733   13.3073    0.0655   16.5043    0.0953   16.9038    0.0981    0.0000    0.0000
  0.260   17.4647    0.1106   17.1971    0.1083   14.0152    0.0795   13.3163    0.0711   16.5174    0.1034   16.9173    0.1065    0.0000    0.0000
  0.280   17.4799    0.1194   17.2120    0.1169   14.0261    0.0858   13.3261    0.0767   16.5316    0.1116   16.9319    0.1149    0.0000    0.0000
  0.300   17.4962    0.1282   17.2280    0.1255   14.0379    0.0921   13.3366    0.0823   16.5469    0.1198   16.9477    0.1234    0.0000    0.0000
  0.320   17.5137    0.1370   17.2452    0.1342   14.0505    0.0985   13.3479    0.0880   16.5633    0.1281   16.9645    0.1319    0.0000    0.0000
  0.340   17.5324    0.1460   17.2635    0.1429   14.0639    0.1049   13.3599    0.0937   16.5808    0.1365   16.9825    0.1405    0.0000    0.0000
  0.360   17.5523    0.1550   17.2830    0.1517   14.0782    0.1113   13.3727    0.0994   16.5994    0.1449   17.0017    0.1491    0.0000    0.0000
  0.380   17.5734    0.1640   17.3036    0.1606   14.0934    0.1178   13.3862    0.1052   16.6191    0.1534   17.0220    0.1579    0.0000    0.0000
  0.400   17.5957    0.1732   17.3254    0.1696   14.1094    0.1244   13.4005    0.1110   16.6399    0.1619   17.0434    0.1667    0.0000    0.0000
  0.420   17.6192    0.1824   17.3484    0.1786   14.1263    0.1310   13.4156    0.1169   16.6619    0.1705   17.0660    0.1756    0.0000    0.0000
  0.440   17.6439    0.1917   17.3726    0.1877   14.1440    0.1376   13.4315    0.1228   16.6850    0.1793   17.0898    0.1845    0.0000    0.0000
  0.460   17.6699    0.2011   17.3980    0.1969   14.1627    0.1444   13.4481    0.1288   16.7093    0.1880   17.1148    0.1936    0.0000    0.0000
  0.480   17.6971    0.2106   17.4247    0.2062   14.1822    0.1511   13.4656    0.1348   16.7347    0.1969   17.1410    0.2027    0.0000    0.0000
  0.500   17.7255    0.2203   17.4525    0.2156   14.2026    0.1580   13.4838    0.1409   16.7613    0.2059   17.1684    0.2120    0.0000    0.0000
  0.520   17.7553    0.2300   17.4817    0.2251   14.2240    0.1649   13.5028    0.1470   16.7891    0.2150   17.1970    0.2213    0.0000    0.0000
  0.540   17.7863    0.2398   17.5120    0.2347   14.2462    0.1719   13.5227    0.1532   16.8181    0.2242   17.2268    0.2308    0.0000    0.0000
  0.560   17.8186    0.2497   17.5437    0.2445   14.2694    0.1790   13.5434    0.1595   16.8483    0.2335   17.2580    0.2404    0.0000    0.0000
  0.580   17.8523    0.2598   17.5766    0.2543   14.2935    0.1861   13.5649    0.1658   16.8798    0.2429   17.2903    0.2501    0.0000    0.0000
  0.600   17.8872    0.2700   17.6109    0.2643   14.3186    0.1934   13.5872    0.1722   16.9125    0.2524   17.3240    0.2599    0.0000    0.0000
  0.620   17.9236    0.2803   17.6464    0.2744   14.3447    0.2007   13.6104    0.1787   16.9465    0.2621   17.3590    0.2699    0.0000    0.0000
  0.640   17.9613    0.2908   17.6834    0.2847   14.3717    0.2082   13.6345    0.1852   16.9817    0.2719   17.3953    0.2800    0.0000    0.0000
  0.660   18.0004    0.3014   17.7216    0.2951   14.3997    0.2157   13.6594    0.1919   17.0183    0.2818   17.4329    0.2902    0.0000    0.0000
  0.680   18.0409    0.3122   17.7613    0.3056   14.4287    0.2233   13.6852    0.1986   17.0561    0.2919   17.4719    0.3006    0.0000    0.0000
  0.700   18.0828    0.3231   17.8023    0.3163   14.4587    0.2311   13.7120    0.2054   17.0953    0.3021   17.5123    0.3111    0.0000    0.0000
  0.720   18.1262    0.3343   17.8448    0.3272   14.4897    0.2389   13.7396    0.2123   17.1359    0.3125   17.5541    0.3218    0.0000    0.0000
  0.740   18.1711    0.3455   17.8887    0.3382   14.5218    0.2469   13.7681    0.2193   17.1778    0.3230   17.5973    0.3327    0.0000    0.0000
  0.760   18.2174    0.3570   17.9341    0.3494   14.5550    0.2550   13.7975    0.2264   17.2212    0.3338   17.6419    0.3438    0.0000    0.0000
  0.780   18.2653    0.3687   17.9810    0.3609   14.5892    0.2632   13.8279    0.2336   17.2660    0.3447   17.6880    0.3550    0.0000    0.0000
  0.800   18.3148    0.3805   18.0293    0.3725   14.6245    0.2715   13.8593    0.2409   17.3122    0.3558   17.7356    0.3665    0.0000    0.0000
  0.820   18.3658    0.3926   18.0793    0.3843   14.6609    0.2800   13.8916    0.2483   17.3598    0.3671   17.7847    0.3781    0.0000    0.0000
  0.840   18.4184    0.4049   18.1307    0.3963   14.6984    0.2887   13.9249    0.2558   17.4090    0.3786   17.8354    0.3900    0.0000    0.0000
  0.860   18.4726    0.4174   18.1838    0.4085   14.7371    0.2975   13.9592    0.2635   17.4597    0.3903   17.8876    0.4021    0.0000    0.0000
  0.880   18.5285    0.4302   18.2385    0.4210   14.7770    0.3064   13.9945    0.2713   17.5120    0.4022   17.9414    0.4144    0.0000    0.0000
  0.900   18.5861    0.4432   18.2949    0.4337   14.8180    0.3155   14.0309    0.2792   17.5658    0.4144   17.9969    0.4269    0.0000    0.0000
  0.920   18.6454    0.4565   18.3529    0.4467   14.8603    0.3248   14.0683    0.2872   17.6213    0.4268   18.0540    0.4398    0.0000    0.0000
  0.940   18.7065    0.4700   18.4127    0.4600   14.9037    0.3342   14.1068    0.2954   17.6784    0.4394   18.1128    0.4528    0.0000    0.0000
  0.960   18.7693    0.4838   18.4742    0.4735   14.9485    0.3439   14.1463    0.3038   17.7371    0.4523   18.1734    0.4662    0.0000    0.0000
  0.980   18.8340    0.4980   18.5375    0.4873   14.9945    0.3537   14.1870    0.3122   17.7976    0.4655   18.2357    0.4798    0.0000    0.0000
  1.000   18.9006    0.5124   18.6027    0.5014   15.0418    0.3637   14.2288    0.3209   17.8598    0.4790   18.2999    0.4937    0.0000    0.0000
  1.020   18.9691    0.5271   18.6697    0.5158   15.0904    0.3740   14.2717    0.3297   17.9239    0.4928   18.3658    0.5080    0.0000    0.0000
  1.040   19.0395    0.5422   18.7386    0.5305   15.1404    0.3845   14.3159    0.3387   17.9897    0.5069   18.4337    0.5226    0.0000    0.0000
  1.060   19.1119    0.5576   18.8095    0.5456   15.1918    0.3951   14.3612    0.3479   18.0574    0.5213   18.5035    0.5375    0.0000    0.0000
  1.080   19.1864    0.5734   18.8823    0.5610   15.2446    0.4061   14.4077    0.3573   18.1270    0.5361   18.5752    0.5527    0.0000    0.0000
  1.100   19.2629    0.5896   18.9572    0.5768   15.2989    0.4172   14.4555    0.3668   18.1986    0.5512   18.6490    0.5684    0.0000    0.0000
  1.120   19.3416    0.6061   19.0342    0.5930   15.3546    0.4287   14.5045    0.3766   18.2722    0.5666   18.7249    0.5844    0.0000    0.0000
  1.140   19.4225    0.6231   19.1133    0.6096   15.4118    0.4404   14.5548    0.3866   18.3478    0.5825   18.8028    0.6008    0.0000    0.0000
  1.160   19.5056    0.6405   19.1947    0.6266   15.4706    0.4524   14.6065    0.3968   18.4255    0.5988   18.8830    0.6177    0.0000    0.0000
  1.180   19.5910    0.6583   19.2782    0.6440   15.5310    0.4646   14.6595    0.4072   18.5053    0.6155   18.9653    0.6349    0.0000    0.0000
  1.200   19.6788    0.6766   19.3641    0.6619   15.5930    0.4772   14.7139    0.4179   18.5874    0.6326   19.0500    0.6527    0.0000    0.0000
  1.220   19.7690    0.6955   19.4523    0.6803   15.6566    0.4901   14.7697    0.4288   18.6717    0.6502   19.1370    0.6709    0.0000    0.0000
  1.240   19.8617    0.7148   19.5430    0.6992   15.7220    0.5033   14.8269    0.4399   18.7584    0.6683   19.2264    0.6897    0.0000    0.0000
  1.260   19.9569    0.7347   19.6362    0.7186   15.7891    0.5169   14.8856    0.4514   18.8474    0.6868   19.3182    0.7089    0.0000    0.0000
  1.280   20.0548    0.7551   19.7319    0.7385   15.8580    0.5309   14.9459    0.4631   18.9389    0.7059   19.4126    0.7288    0.0000    0.0000
  1.300   20.1553    0.7761   19.8302    0.7591   15.9288    0.5452   15.0077    0.4751   19.0329    0.7256   19.5096    0.7492    0.0000    0.0000
  1.320   20.2586    0.7977   19.9313    0.7802   16.0014    0.5599   15.0710    0.4875   19.1295    0.7458   19.6093    0.7702    0.0000    0.0000
  1.340   20.3648    0.8200   20.0351    0.8020   16.0760    0.5751   15.1361    0.5001   19.2287    0.7667   19.7118    0.7919    0.0000    0.0000
  1.360   20.4739    0.8430   20.1418    0.8244   16.1526    0.5907   15.2027    0.5131   19.3307    0.7881   19.8171    0.8142    0.0000    0.0000
  1.380   20.5860    0.8667   20.2515    0.8475   16.2312    0.6067   15.2711    0.5264   19.4356    0.8103   19.9254    0.8372    0.0000    0.0000
  1.400   20.7013    0.8911   20.3641    0.8714   16.3120    0.6232   15.3413    0.5401   19.5433    0.8331   20.0367    0.8610    0.0000    0.0000
  1.420   20.8197    0.9163   20.4800    0.8960   16.3949    0.6403   15.4133    0.5542   19.6540    0.8567   20.1511    0.8856    0.0000    0.0000
  1.440   20.9415    0.9424   20.5990    0.9215   16.4800    0.6578   15.4871    0.5687   19.7679    0.8811   20.2687    0.9110    0.0000    0.0000
  1.460   21.0666    0.9693   20.7214    0.9477   16.5675    0.6760   15.5628    0.5836   19.8849    0.9062   20.3896    0.9372    0.0000    0.0000
  1.480   21.1953    0.9971   20.8473    0.9749   16.6573    0.6947   15.6405    0.5989   20.0052    0.9323   20.5140    0.9644    0.0000    0.0000
  1.500   21.3277    1.0259   20.9767    1.0030   16.7496    0.7140   15.7202    0.6147   20.1290    0.9592   20.6420    0.9925    0.0000    0.0000
  1.520   21.4638    1.0557   21.1098    1.0321   16.8445    0.7340   15.8020    0.6310   20.2562    0.9871   20.7736    1.0217    0.0000    0.0000
  1.540   21.6038    1.0866   21.2467    1.0623   16.9419    0.7547   15.8860    0.6478   20.3872    1.0160   20.9090    1.0519    0.0000    0.0000
  1.560   21.7479    1.1187   21.3875    1.0936   17.0421    0.7760   15.9721    0.6651   20.5218    1.0459   21.0484    1.0832    0.0000    0.0000
  1.580   21.8961    1.1519   21.5324    1.1260   17.1450    0.7982   16.0605    0.6829   20.6604    1.0770   21.1918    1.1158    0.0000    0.0000
  1.600   22.0487    1.1863   21.6816    1.1596   17.2509    0.8212   16.1513    0.7014   20.8031    1.1092   21.3395    1.1496    0.0000    0.0000
  1.620   22.2057    1.2222   21.8351    1.1946   17.3597    0.8450   16.2445    0.7204   20.9499    1.1427   21.4916    1.1848    0.0000    0.0000
  1.640   22.3675    1.2594   21.9932    1.2310   17.4717    0.8697   16.3402    0.7402   21.1011    1.1775   21.6482    1.2214    0.0000    0.0000
  1.660   22.5340    1.2981   22.1559    1.2688   17.5868    0.8953   16.4384    0.7605   21.2569    1.2137   21.8096    1.2596    0.0000    0.0000
  1.680   22.7056    1.3385   22.3236    1.3081   17.7053    0.9220   16.5394    0.7816   21.4173    1.2514   21.9759    1.2993    0.0000    0.0000
  1.700   22.8824    1.3805   22.4964    1.3491   17.8273    0.9497   16.6431    0.8035   21.5826    1.2907   22.1473    1.3408    0.0000    0.0000
  1.720   23.0646    1.4243   22.6745    1.3919   17.9528    0.9786   16.7496    0.8262   21.7530    1.3316   22.3241    1.3841    0.0000    0.0000
  1.740   23.2525    1.4700   22.8582    1.4365   18.0821    1.0087   16.8591    0.8497   21.9287    1.3743   22.5065    1.4294    0.0000    0.0000
  1.760   23.4463    1.5178   23.0475    1.4832   18.2153    1.0401   16.9717    0.8741   22.1099    1.4189   22.6946    1.4768    0.0000    0.0000
  1.780   23.6462    1.5677   23.2429    1.5319   18.3525    1.0729   17.0875    0.8994   22.2968    1.4656   22.8888    1.5264    0.0000    0.0000
  1.800   23.8525    1.6200   23.4445    1.5829   18.4939    1.1071   17.2065    0.9257   22.4898    1.5144   23.0894    1.5785    0.0000    0.0000
  1.820   24.0656    1.6748   23.6527    1.6364   18.6397    1.1429   17.3290    0.9531   22.6890    1.5655   23.2965    1.6331    0.0000    0.0000
  1.840   24.2856    1.7322   23.8676    1.6924   18.7901    1.1804   17.4550    0.9816   22.8947    1.6191   23.5106    1.6905    0.0000    0.0000
  1.860   24.5129    1.7925   24.0898    1.7513   18.9453    1.2197   17.5847    1.0114   23.1073    1.6753   23.7320    1.7510    0.0000    0.0000
  1.880   24.7479    1.8558   24.3194    1.8131   19.1055    1.2609   17.7183    1.0423   23.3270    1.7344   23.9609    1.8146    0.0000    0.0000
  1.900   24.9910    1.9225   24.5568    1.8782   19.2709    1.3042   17.8558    1.0747   23.5542    1.7965   24.1978    1.8818    0.0000    0.0000
  1.920   25.2424    1.9927   24.8024    1.9467   19.4417    1.3498   17.9975    1.1085   23.7893    1.8619   24.4431    1.9528    0.0000    0.0000
  1.940   25.5026    2.0668   25.0566    2.0191   19.6183    1.3978   18.1436    1.1438   24.0327    1.9309   24.6972    2.0279    0.0000    0.0000
  1.960   25.7722    2.1450   25.3199    2.0954   19.8009    1.4484   18.2942    1.1807   24.2847    2.0036   24.9606    2.1075    0.0000    0.0000
  1.980   26.0514    2.2277   25.5927    2.1762   19.9899    1.5019   18.4495    1.2195   24.5458    2.0805   25.2337    2.1920    0.0000    0.0000
  2.000   26.3410    2.3153   25.8755    2.2618   20.1854    1.5585   18.6097    1.2601   24.8165    2.1619   25.5171    2.2819    0.0000    0.0000
  2.020   26.6413    2.4083   26.1689    2.3526   20.3879    1.6184   18.7751    1.3028   25.0973    2.2481   25.8113    2.3777    0.0000    0.0000
  2.040   26.9530    2.5070   26.4733    2.4490   20.5977    1.6821   18.9460    1.3476   25.3888    2.3396   26.1169    2.4800    0.0000    0.0000
  2.060   27.2767    2.6122   26.7895    2.5517   20.8153    1.7498   19.1224    1.3948   25.6915    2.4368   26.4346    2.5895    0.0000    0.0000
  2.080   27.6131    2.7242   27.1181    2.6612   21.0410    1.8219   19.3049    1.4446   26.0060    2.5403   26.7651    2.7069    0.0001    0.0000
  2.100   27.9629    2.8440   27.4597    2.7783   21.2753    1.8990   19.4935    1.4971   26.3332    2.6507   27.1091    2.8331    0.0002    0.0000
  2.120   28.3269    2.9722   27.8152    2.9036   21.5186    1.9814   19.6887    1.5525   26.6736    2.7686   27.4673    2.9692    0.0004    0.0000
  2.140   28.7059    3.1097   28.1853    3.0381   21.7714    2.0699   19.8908    1.6112   27.0281    2.8948   27.8407    3.1164    0.0008    0.0000
  2.160   29.1008    3.2576   28.5710    3.1827   22.0344    2.1650   20.1002    1.6735   27.3976    3.0302   28.2299    3.2759    0.0017    0.0000
  2.180   29.5125    3.4171   28.9730    3.3387   22.3080    2.2677   20.3172    1.7396   27.7829    3.1757   28.6359    3.4495    0.0033    0.0000
  2.200   29.9420    3.5894   29.3924    3.5074   22.5928    2.3787   20.5422    1.8098   28.1851    3.3324   29.0596    3.6391    0.0063    0.0000
  2.220   30.3903    3.7762   29.8303    3.6902   22.8895    2.4992   20.7758    1.8847   28.6052    3.5015   29.5018    3.8467    0.0115    0.0000
  2.240   30.8585    3.9793   30.2875    3.8891   23.1985    2.6304   21.0183    1.9647   29.0445    3.6845   29.9632    4.0751    0.0205    0.0000
  2.260   31.3477    4.2007   30.7651    4.1060   23.5205    2.7738   21.2704    2.0502   29.5040    3.8831   30.4445    4.3274    0.0351    0.0001
  2.280   31.8588    4.4430   31.2643    4.3435   23.8560    2.9310   21.5325    2.1419   29.9852    4.0992   30.9460    4.6072    0.0582    0.0001
  2.300   32.3929    4.7091   31.7858    4.6043   24.2053    3.1041   21.8052    2.2404   30.4895    4.3351   31.4676    4.9188    0.0931    0.0002
  2.320   32.9508    5.0022   32.3305    4.8919   24.5686    3.2954   22.0893    2.3466   31.0183    4.5932   32.0085    5.2673    0.1437    0.0003
  2.340   33.5329    5.3262   32.8989    5.2099   24.9458    3.5077   22.3854    2.4612   31.5733    4.8767   32.5670    5.6586    0.2145    0.0004
  2.360   34.1393    5.6856   33.4910    5.5629   25.3362    3.7439   22.6941    2.5854   32.1559    5.1891   33.1396    6.0989    0.3091    0.0007
  2.380   34.7694    6.0854   34.1061    5.9557   25.7386    4.0075   23.0164    2.7203   32.7679    5.5346   33.7209    6.5954    0.4308    0.0010
  2.400   35.4214    6.5308   34.7426    6.3938   26.1506    4.3020   23.3530    2.8672   33.4108    5.9182   34.3022    7.1547    0.5806    0.0014
  2.420   36.0925    7.0273   35.3975    6.8824   26.5685    4.6306   23.7048    3.0279   34.0860    6.3459   34.8711    7.7820    0.7576    0.0020
  2.440   36.7781    7.5798   36.0663    7.4266   26.9873    4.9957   24.0726    3.2042   34.7946    6.8246   35.4111    8.4786    0.9583    0.0027
  2.460   37.4723    8.1914   36.7432    8.0297   27.4006    5.3976   24.4574    3.3983   35.5373    7.3628   35.9020    9.2391    1.1770    0.0035
  2.480   38.1688    8.8628   37.4218    8.6926   27.8017    5.8339   24.8599    3.6130   36.3139    7.9703   36.3231   10.0472    1.4070    0.0046
  2.500   38.8628    9.5913   38.0970    9.4130   28.1854    6.2978   25.2810    3.8513   37.1229    8.6590   36.6602   10.8733    1.6424    0.0058
  2.520   39.5539   10.3718   38.7681   10.1863   28.5512    6.7800   25.7212    4.1171   37.9607    9.4425   36.9147   11.6768    1.8803    0.0072
  2.540   40.2490   11.2002   39.4411   11.0090   28.9059    7.2708   26.1809    4.4148   38.8209   10.3368   37.1133   12.4161    2.1227    0.0087
  2.560   40.9613   12.0797   40.1279   11.8845   29.2633    7.7668   26.6599    4.7497   39.6929   11.3593   37.3077   13.0661    2.3786    0.0105
  2.580   41.7057   13.0253   40.8416   12.8279   29.6395    8.2743   27.1574    5.1283   40.5602   12.5288   37.5623   13.6330    2.6642    0.0124
