# GW Macroscopic dielectric function without local field effects 
# Scissor operator energy =  0.8000 [eV]
# Tolerance =  0.0200 0.0200
# npweps  = 59
# npwwfn  = 137
# nbands  = 6
# loband  = 2
# nkibz   = 64
# nkbz    = 64
# Lorentzian broadening =  0.1500 [eV]
# List of q-points for the optical limit:
# q =  0.938821, 0.000000, 0.000000, [Reduced coords] 
# q =  0.000000, 0.938821, 0.000000, [Reduced coords] 
# q =  0.000000, 0.000000, 0.938821, [Reduced coords] 
# q =  0.000000, 0.813043, 0.813043, [Reduced coords] 
# q =  0.813043, 0.000000, 0.813043, [Reduced coords] 
# q =  0.813043, 0.813043, 0.000000, [Reduced coords] 
# omega [eV]    RE(eps(q=1)) IM(eps(q=1) RE(eps(q=2) ) ... DOS   IDOS
  0.000   14.3195    0.0000   14.1097    0.0000   11.6332    0.0000   11.1094    0.0000   13.5673    0.0000   13.8873    0.0000    0.0000    0.0000
  0.020   14.3198    0.0044   14.1100    0.0043   11.6334    0.0032   11.1096    0.0030   13.5676    0.0041   13.8876    0.0042    0.0000    0.0000
  0.040   14.3207    0.0088   14.1108    0.0086   11.6341    0.0065   11.1102    0.0059   13.5684    0.0082   13.8884    0.0085    0.0000    0.0000
  0.060   14.3221    0.0132   14.1122    0.0130   11.6352    0.0097   11.1112    0.0089   13.5698    0.0124   13.8898    0.0127    0.0000    0.0000
  0.080   14.3242    0.0176   14.1142    0.0173   11.6367    0.0130   11.1125    0.0118   13.5717    0.0165   13.8918    0.0170    0.0000    0.0000
  0.100   14.3268    0.0220   14.1168    0.0216   11.6386    0.0162   11.1143    0.0148   13.5742    0.0206   13.8943    0.0212    0.0000    0.0000
  0.120   14.3300    0.0265   14.1200    0.0259   11.6410    0.0195   11.1165    0.0177   13.5772    0.0248   13.8974    0.0255    0.0000    0.0000
  0.140   14.3338    0.0309   14.1237    0.0303   11.6438    0.0227   11.1190    0.0207   13.5807    0.0289   13.9011    0.0297    0.0000    0.0000
  0.160   14.3382    0.0353   14.1280    0.0346   11.6470    0.0260   11.1220    0.0237   13.5848    0.0331   13.9053    0.0340    0.0000    0.0000
  0.180   14.3432    0.0398   14.1329    0.0390   11.6507    0.0293   11.1253    0.0267   13.5895    0.0372   13.9101    0.0383    0.0000    0.0000
  0.200   14.3488    0.0442   14.1384    0.0434   11.6548    0.0326   11.1290    0.0297   13.5947    0.0414   13.9155    0.0426    0.0000    0.0000
  0.220   14.3549    0.0487   14.1444    0.0477   11.6593    0.0358   11.1332    0.0327   13.6005    0.0456   13.9214    0.0469    0.0000    0.0000
  0.240   14.3617    0.0532   14.1510    0.0521   11.6643    0.0391   11.1377    0.0357   13.6068    0.0498   13.9279    0.0512    0.0000    0.0000
  0.260   14.3690    0.0577   14.1582    0.0566   11.6697    0.0425   11.1426    0.0387   13.6137    0.0540   13.9350    0.0555    0.0000    0.0000
  0.280   14.3770    0.0622   14.1660    0.0610   11.6756    0.0458   11.1480    0.0417   13.6211    0.0582   13.9426    0.0598    0.0000    0.0000
  0.300   14.3855    0.0667   14.1744    0.0654   11.6818    0.0491   11.1537    0.0447   13.6291    0.0625   13.9508    0.0642    0.0000    0.0000
  0.320   14.3947    0.0713   14.1834    0.0699   11.6886    0.0525   11.1598    0.0478   13.6377    0.0667   13.9596    0.0686    0.0000    0.0000
  0.340   14.4045    0.0759   14.1929    0.0744   11.6958    0.0558   11.1664    0.0508   13.6468    0.0710   13.9690    0.0730    0.0000    0.0000
  0.360   14.4148    0.0805   14.2031    0.0789   11.7034    0.0592   11.1733    0.0539   13.6565    0.0753   13.9790    0.0774    0.0000    0.0000
  0.380   14.4258    0.0851   14.2139    0.0834   11.7115    0.0626   11.1807    0.0570   13.6668    0.0796   13.9895    0.0819    0.0000    0.0000
  0.400   14.4374    0.0897   14.2252    0.0880   11.7200    0.0660   11.1884    0.0601   13.6776    0.0840   14.0007    0.0863    0.0000    0.0000
  0.420   14.4496    0.0944   14.2372    0.0925   11.7290    0.0694   11.1966    0.0632   13.6891    0.0883   14.0124    0.0908    0.0000    0.0000
  0.440   14.4624    0.0991   14.2498    0.0971   11.7384    0.0729   11.2052    0.0663   13.7011    0.0927   14.0248    0.0953    0.0000    0.0000
  0.460   14.4759    0.1038   14.2630    0.1018   11.7483    0.0763   11.2142    0.0695   13.7136    0.0972   14.0377    0.0999    0.0000    0.0000
  0.480   14.4900    0.1086   14.2768    0.1064   11.7587    0.0798   11.2236    0.0726   13.7268    0.1016   14.0513    0.1045    0.0000    0.0000
  0.500   14.5047    0.1134   14.2912    0.1111   11.7695    0.0833   11.2335    0.0758   13.7406    0.1061   14.0654    0.1091    0.0000    0.0000
  0.520   14.5200    0.1182   14.3062    0.1159   11.7808    0.0868   11.2437    0.0790   13.7550    0.1106   14.0802    0.1137    0.0000    0.0000
  0.540   14.5360    0.1231   14.3219    0.1206   11.7925    0.0904   11.2544    0.0822   13.7699    0.1151   14.0956    0.1184    0.0000    0.0000
  0.560   14.5527    0.1280   14.3382    0.1254   11.8047    0.0940   11.2656    0.0855   13.7855    0.1197   14.1116    0.1231    0.0000    0.0000
  0.580   14.5700    0.1329   14.3552    0.1303   11.8174    0.0976   11.2771    0.0887   13.8017    0.1243   14.1282    0.1278    0.0000    0.0000
  0.600   14.5879    0.1379   14.3728    0.1351   11.8306    0.1012   11.2891    0.0920   13.8185    0.1290   14.1455    0.1326    0.0000    0.0000
  0.620   14.6065    0.1429   14.3910    0.1400   11.8443    0.1049   11.3015    0.0953   13.8359    0.1337   14.1634    0.1374    0.0000    0.0000
  0.640   14.6258    0.1479   14.4099    0.1450   11.8585    0.1086   11.3144    0.0987   13.8539    0.1384   14.1819    0.1423    0.0000    0.0000
  0.660   14.6457    0.1530   14.4294    0.1500   11.8731    0.1123   11.3277    0.1021   13.8726    0.1432   14.2011    0.1472    0.0000    0.0000
  0.680   14.6664    0.1582   14.4497    0.1550   11.8882    0.1161   11.3415    0.1055   13.8919    0.1480   14.2210    0.1522    0.0000    0.0000
  0.700   14.6877    0.1634   14.4706    0.1601   11.9039    0.1199   11.3557    0.1089   13.9118    0.1529   14.2415    0.1572    0.0000    0.0000
  0.720   14.7097    0.1686   14.4921    0.1653   11.9200    0.1237   11.3704    0.1123   13.9324    0.1578   14.2626    0.1622    0.0000    0.0000
  0.740   14.7324    0.1739   14.5144    0.1705   11.9367    0.1275   11.3855    0.1158   13.9536    0.1627   14.2845    0.1673    0.0000    0.0000
  0.760   14.7558    0.1793   14.5373    0.1757   11.9539    0.1314   11.4011    0.1193   13.9755    0.1677   14.3070    0.1725    0.0000    0.0000
  0.780   14.7799    0.1847   14.5610    0.1810   11.9715    0.1354   11.4172    0.1229   13.9981    0.1728   14.3302    0.1777    0.0000    0.0000
  0.800   14.8048    0.1902   14.5853    0.1864   11.9898    0.1393   11.4337    0.1265   14.0214    0.1779   14.3541    0.1830    0.0000    0.0000
  0.820   14.8303    0.1957   14.6104    0.1918   12.0085    0.1434   11.4507    0.1301   14.0453    0.1831   14.3787    0.1883    0.0000    0.0000
  0.840   14.8566    0.2013   14.6361    0.1973   12.0278    0.1474   11.4682    0.1337   14.0699    0.1883   14.4040    0.1937    0.0000    0.0000
  0.860   14.8837    0.2070   14.6627    0.2028   12.0476    0.1515   11.4862    0.1374   14.0952    0.1936   14.4300    0.1991    0.0000    0.0000
  0.880   14.9115    0.2127   14.6899    0.2084   12.0679    0.1557   11.5047    0.1412   14.1212    0.1990   14.4568    0.2046    0.0000    0.0000
  0.900   14.9401    0.2185   14.7179    0.2141   12.0889    0.1599   11.5236    0.1449   14.1479    0.2044   14.4843    0.2102    0.0000    0.0000
  0.920   14.9694    0.2244   14.7467    0.2199   12.1103    0.1641   11.5431    0.1488   14.1754    0.2099   14.5125    0.2159    0.0000    0.0000
  0.940   14.9995    0.2303   14.7762    0.2257   12.1324    0.1684   11.5631    0.1526   14.2036    0.2155   14.5415    0.2216    0.0000    0.0000
  0.960   15.0304    0.2363   14.8065    0.2316   12.1550    0.1728   11.5836    0.1565   14.2325    0.2211   14.5712    0.2274    0.0000    0.0000
  0.980   15.0622    0.2424   14.8375    0.2376   12.1782    0.1772   11.6046    0.1605   14.2621    0.2268   14.6017    0.2332    0.0000    0.0000
  1.000   15.0947    0.2486   14.8694    0.2436   12.2020    0.1816   11.6261    0.1645   14.2926    0.2326   14.6330    0.2392    0.0000    0.0000
  1.020   15.1280    0.2549   14.9021    0.2498   12.2263    0.1862   11.6482    0.1685   14.3238    0.2384   14.6651    0.2452    0.0000    0.0000
  1.040   15.1622    0.2612   14.9356    0.2560   12.2513    0.1907   11.6708    0.1726   14.3558    0.2444   14.6980    0.2513    0.0000    0.0000
  1.060   15.1972    0.2677   14.9699    0.2623   12.2769    0.1954   11.6940    0.1768   14.3885    0.2504   14.7317    0.2576    0.0000    0.0000
  1.080   15.2331    0.2742   15.0051    0.2687   12.3031    0.2001   11.7177    0.1810   14.4221    0.2565   14.7662    0.2639    0.0000    0.0000
  1.100   15.2699    0.2809   15.0411    0.2752   12.3299    0.2049   11.7420    0.1852   14.4565    0.2627   14.8016    0.2702    0.0000    0.0000
  1.120   15.3075    0.2876   15.0780    0.2818   12.3574    0.2097   11.7668    0.1896   14.4917    0.2690   14.8378    0.2767    0.0000    0.0000
  1.140   15.3461    0.2945   15.1157    0.2885   12.3855    0.2146   11.7922    0.1939   14.5277    0.2754   14.8749    0.2833    0.0000    0.0000
  1.160   15.3855    0.3014   15.1544    0.2953   12.4143    0.2196   11.8182    0.1984   14.5646    0.2819   14.9128    0.2900    0.0000    0.0000
  1.180   15.4259    0.3085   15.1939    0.3022   12.4437    0.2247   11.8448    0.2029   14.6024    0.2885   14.9517    0.2968    0.0000    0.0000
  1.200   15.4672    0.3156   15.2344    0.3092   12.4738    0.2298   11.8720    0.2074   14.6411    0.2953   14.9914    0.3037    0.0000    0.0000
  1.220   15.5095    0.3229   15.2758    0.3164   12.5046    0.2350   11.8998    0.2121   14.6806    0.3021   15.0321    0.3108    0.0000    0.0000
  1.240   15.5527    0.3304   15.3182    0.3236   12.5360    0.2403   11.9282    0.2168   14.7210    0.3090   15.0737    0.3179    0.0000    0.0000
  1.260   15.5969    0.3379   15.3615    0.3310   12.5682    0.2457   11.9572    0.2215   14.7624    0.3161   15.1163    0.3252    0.0000    0.0000
  1.280   15.6422    0.3456   15.4058    0.3385   12.6011    0.2512   11.9869    0.2264   14.8047    0.3232   15.1598    0.3326    0.0000    0.0000
  1.300   15.6884    0.3534   15.4512    0.3462   12.6347    0.2567   12.0172    0.2313   14.8480    0.3305   15.2043    0.3401    0.0000    0.0000
  1.320   15.7357    0.3613   15.4975    0.3540   12.6691    0.2624   12.0482    0.2363   14.8922    0.3380   15.2498    0.3477    0.0000    0.0000
  1.340   15.7841    0.3694   15.5448    0.3619   12.7042    0.2681   12.0798    0.2414   14.9374    0.3455   15.2963    0.3555    0.0000    0.0000
  1.360   15.8335    0.3777   15.5933    0.3699   12.7401    0.2740   12.1122    0.2466   14.9837    0.3532   15.3439    0.3635    0.0000    0.0000
  1.380   15.8840    0.3861   15.6427    0.3782   12.7768    0.2800   12.1452    0.2518   15.0309    0.3611   15.3925    0.3716    0.0000    0.0000
  1.400   15.9356    0.3946   15.6933    0.3865   12.8142    0.2860   12.1789    0.2572   15.0792    0.3691   15.4422    0.3798    0.0000    0.0000
  1.420   15.9884    0.4033   15.7450    0.3951   12.8525    0.2922   12.2133    0.2626   15.1286    0.3772   15.4930    0.3882    0.0000    0.0000
  1.440   16.0423    0.4122   15.7978    0.4038   12.8916    0.2985   12.2484    0.2681   15.1790    0.3856   15.5449    0.3968    0.0000    0.0000
  1.460   16.0975    0.4213   15.8518    0.4126   12.9315    0.3049   12.2843    0.2738   15.2306    0.3940   15.5979    0.4055    0.0000    0.0000
  1.480   16.1538    0.4305   15.9070    0.4217   12.9723    0.3114   12.3209    0.2795   15.2833    0.4027   15.6522    0.4144    0.0000    0.0000
  1.500   16.2113    0.4400   15.9634    0.4309   13.0139    0.3181   12.3583    0.2853   15.3371    0.4115   15.7076    0.4235    0.0000    0.0000
  1.520   16.2701    0.4496   16.0209    0.4403   13.0565    0.3249   12.3965    0.2913   15.3921    0.4205   15.7642    0.4328    0.0000    0.0000
  1.540   16.3302    0.4595   16.0798    0.4500   13.0999    0.3318   12.4354    0.2973   15.4483    0.4297   15.8220    0.4423    0.0000    0.0000
  1.560   16.3916    0.4695   16.1399    0.4598   13.1442    0.3389   12.4752    0.3035   15.5057    0.4391   15.8811    0.4520    0.0000    0.0000
  1.580   16.4543    0.4798   16.2013    0.4698   13.1895    0.3461   12.5158    0.3098   15.5644    0.4487   15.9415    0.4619    0.0000    0.0000
  1.600   16.5184    0.4903   16.2641    0.4801   13.2358    0.3534   12.5572    0.3162   15.6243    0.4585   16.0032    0.4720    0.0000    0.0000
  1.620   16.5839    0.5010   16.3282    0.4906   13.2830    0.3609   12.5994    0.3227   15.6855    0.4685   16.0662    0.4824    0.0000    0.0000
  1.640   16.6508    0.5119   16.3937    0.5013   13.3312    0.3686   12.6426    0.3294   15.7481    0.4788   16.1306    0.4930    0.0000    0.0000
  1.660   16.7192    0.5231   16.4607    0.5122   13.3805    0.3764   12.6866    0.3362   15.8120    0.4893   16.1965    0.5038    0.0000    0.0000
  1.680   16.7890    0.5346   16.5291    0.5235   13.4307    0.3844   12.7315    0.3431   15.8774    0.5000   16.2637    0.5149    0.0000    0.0000
  1.700   16.8604    0.5464   16.5990    0.5349   13.4821    0.3926   12.7774    0.3502   15.9441    0.5110   16.3325    0.5262    0.0000    0.0000
  1.720   16.9333    0.5584   16.6704    0.5467   13.5345    0.4010   12.8242    0.3574   16.0123    0.5222   16.4027    0.5378    0.0000    0.0000
  1.740   17.0079    0.5707   16.7433    0.5587   13.5881    0.4096   12.8719    0.3648   16.0820    0.5337   16.4745    0.5497    0.0000    0.0000
  1.760   17.0840    0.5833   16.8179    0.5711   13.6428    0.4183   12.9206    0.3724   16.1532    0.5455   16.5478    0.5619    0.0000    0.0000
  1.780   17.1618    0.5962   16.8941    0.5837   13.6986    0.4273   12.9704    0.3801   16.2260    0.5576   16.6228    0.5744    0.0000    0.0000
  1.800   17.2414    0.6095   16.9720    0.5967   13.7556    0.4365   13.0211    0.3880   16.3004    0.5700   16.6994    0.5872    0.0000    0.0000
  1.820   17.3227    0.6231   17.0516    0.6099   13.8139    0.4459   13.0730    0.3961   16.3764    0.5827   16.7777    0.6003    0.0000    0.0000
  1.840   17.4058    0.6370   17.1329    0.6236   13.8734    0.4556   13.1258    0.4043   16.4542    0.5957   16.8578    0.6138    0.0000    0.0000
  1.860   17.4907    0.6513   17.2161    0.6375   13.9342    0.4654   13.1798    0.4128   16.5336    0.6091   16.9396    0.6277    0.0000    0.0000
  1.880   17.5776    0.6660   17.3011    0.6519   13.9963    0.4756   13.2349    0.4214   16.6148    0.6228   17.0233    0.6419    0.0000    0.0000
  1.900   17.6664    0.6811   17.3880    0.6666   14.0597    0.4860   13.2912    0.4302   16.6978    0.6369   17.1088    0.6565    0.0000    0.0000
  1.920   17.7571    0.6966   17.4768    0.6818   14.1245    0.4966   13.3486    0.4393   16.7827    0.6514   17.1963    0.6715    0.0000    0.0000
  1.940   17.8500    0.7125   17.5677    0.6973   14.1907    0.5076   13.4072    0.4486   16.8695    0.6663   17.2858    0.6869    0.0000    0.0000
  1.960   17.9449    0.7289   17.6606    0.7133   14.2584    0.5188   13.4671    0.4581   16.9583    0.6816   17.3773    0.7027    0.0000    0.0000
  1.980   18.0420    0.7457   17.7556    0.7298   14.3275    0.5303   13.5282    0.4679   17.0491    0.6974   17.4709    0.7191    0.0000    0.0000
  2.000   18.1413    0.7631   17.8528    0.7467   14.3982    0.5422   13.5906    0.4779   17.1420    0.7136   17.5667    0.7359    0.0000    0.0000
  2.020   18.2430    0.7809   17.9523    0.7641   14.4705    0.5544   13.6543    0.4881   17.2370    0.7302   17.6646    0.7531    0.0000    0.0000
  2.040   18.3469    0.7992   18.0540    0.7821   14.5443    0.5669   13.7194    0.4987   17.3343    0.7474   17.7649    0.7710    0.0000    0.0000
  2.060   18.4533    0.8182   18.1581    0.8005   14.6198    0.5798   13.7859    0.5095   17.4337    0.7651   17.8675    0.7893    0.0000    0.0000
  2.080   18.5622    0.8377   18.2647    0.8196   14.6971    0.5930   13.8538    0.5206   17.5356    0.7833   17.9725    0.8082    0.0000    0.0000
  2.100   18.6737    0.8578   18.3737    0.8392   14.7760    0.6067   13.9232    0.5320   17.6398    0.8021   18.0801    0.8278    0.0000    0.0000
  2.120   18.7878    0.8785   18.4854    0.8595   14.8568    0.6208   13.9941    0.5437   17.7465    0.8215   18.1901    0.8479    0.0000    0.0000
  2.140   18.9046    0.8999   18.5997    0.8803   14.9394    0.6353   14.0666    0.5558   17.8558    0.8415   18.3029    0.8687    0.0000    0.0000
  2.160   19.0243    0.9220   18.7167    0.9019   15.0239    0.6502   14.1406    0.5682   17.9676    0.8621   18.4184    0.8902    0.0000    0.0000
  2.180   19.1468    0.9448   18.8366    0.9242   15.1104    0.6656   14.2163    0.5809   18.0823    0.8835   18.5367    0.9124    0.0000    0.0000
  2.200   19.2724    0.9684   18.9595    0.9472   15.1990    0.6815   14.2937    0.5941   18.1997    0.9055   18.6579    0.9354    0.0000    0.0000
  2.220   19.4010    0.9927   19.0853    0.9710   15.2896    0.6979   14.3728    0.6076   18.3200    0.9283   18.7821    0.9591    0.0000    0.0000
  2.240   19.5329    1.0180   19.2143    0.9956   15.3824    0.7149   14.4536    0.6215   18.4433    0.9519   18.9095    0.9837    0.0000    0.0000
  2.260   19.6681    1.0440   19.3465    1.0211   15.4774    0.7324   14.5364    0.6359   18.5697    0.9763   19.0400    1.0092    0.0000    0.0000
  2.280   19.8067    1.0711   19.4820    1.0475   15.5747    0.7505   14.6210    0.6507   18.6993    1.0016   19.1739    1.0356    0.0000    0.0000
  2.300   19.9488    1.0991   19.6210    1.0748   15.6744    0.7693   14.7075    0.6659   18.8322    1.0278   19.3113    1.0629    0.0000    0.0000
  2.320   20.0946    1.1281   19.7636    1.1032   15.7765    0.7887   14.7961    0.6817   18.9685    1.0549   19.4522    1.0913    0.0000    0.0000
  2.340   20.2442    1.1582   19.9099    1.1326   15.8812    0.8088   14.8868    0.6979   19.1084    1.0831   19.5968    1.1208    0.0000    0.0000
  2.360   20.3977    1.1895   20.0600    1.1631   15.9885    0.8296   14.9795    0.7147   19.2520    1.1123   19.7453    1.1514    0.0000    0.0000
  2.380   20.5553    1.2220   20.2142    1.1948   16.0986    0.8512   15.0745    0.7321   19.3993    1.1427   19.8978    1.1833    0.0000    0.0000
  2.400   20.7171    1.2557   20.3724    1.2277   16.2114    0.8736   15.1718    0.7501   19.5507    1.1742   20.0544    1.2164    0.0000    0.0000
  2.420   20.8834    1.2908   20.5349    1.2620   16.3272    0.8969   15.2714    0.7686   19.7061    1.2070   20.2153    1.2509    0.0000    0.0000
  2.440   21.0541    1.3273   20.7019    1.2976   16.4460    0.9211   15.3735    0.7879   19.8658    1.2411   20.3807    1.2868    0.0000    0.0000
  2.460   21.2297    1.3653   20.8735    1.3347   16.5680    0.9462   15.4781    0.8078   20.0300    1.2767   20.5507    1.3243    0.0000    0.0000
  2.480   21.4101    1.4050   21.0499    1.3734   16.6932    0.9724   15.5853    0.8284   20.1987    1.3137   20.7256    1.3633    0.0000    0.0000
  2.500   21.5957    1.4463   21.2314    1.4137   16.8218    0.9996   15.6952    0.8498   20.3723    1.3523   20.9055    1.4042    0.0000    0.0000
  2.520   21.7867    1.4894   21.4180    1.4558   16.9540    1.0280   15.8078    0.8720   20.5509    1.3927   21.0906    1.4468    0.0000    0.0000
  2.540   21.9832    1.5345   21.6101    1.4998   17.0898    1.0576   15.9234    0.8951   20.7346    1.4348   21.2813    1.4915    0.0000    0.0000
  2.560   22.1855    1.5816   21.8078    1.5458   17.2294    1.0885   16.0420    0.9190   20.9238    1.4788   21.4776    1.5382    0.0000    0.0000
  2.580   22.3939    1.6309   22.0115    1.5939   17.3730    1.1208   16.1637    0.9439   21.1187    1.5248   21.6800    1.5872    0.0000    0.0000
