# RPA macroscopic dielectric function without local fields
# Tolerance =  0.0200 0.0200
# npweps  = 59
# npwwfn  = 137
# nbands  = 6
# loband  = 2
# nkibz   = 216
# nkbz    = 216
# Lorentzian broadening =  0.1500 [eV]
# List of q-points for the optical limit:
# q =  0.938821, 0.000000, 0.000000, [Reduced coords] 
# q =  0.000000, 0.938821, 0.000000, [Reduced coords] 
# q =  0.000000, 0.000000, 0.938821, [Reduced coords] 
# q =  0.000000, 0.813043, 0.813043, [Reduced coords] 
# q =  0.813043, 0.000000, 0.813043, [Reduced coords] 
# q =  0.813043, 0.813043, 0.000000, [Reduced coords] 
# omega [eV]    RE(eps(q=1)) IM(eps(q=1) RE(eps(q=2) ) ... DOS   IDOS
  0.000   14.3661    0.0000   14.3300    0.0000   13.2018    0.0000   13.1084    0.0000   13.9569    0.0000   14.1764    0.0000    0.0000    0.0000
  0.020   14.3666    0.0067   14.3304    0.0066   13.2022    0.0057   13.1088    0.0056   13.9573    0.0064   14.1768    0.0065    0.0000    0.0000
  0.040   14.3679    0.0133   14.3317    0.0133   13.2033    0.0114   13.1099    0.0111   13.9585    0.0127   14.1781    0.0131    0.0000    0.0000
  0.060   14.3701    0.0200   14.3339    0.0199   13.2052    0.0171   13.1117    0.0167   13.9606    0.0191   14.1803    0.0196    0.0000    0.0000
  0.080   14.3732    0.0267   14.3370    0.0266   13.2078    0.0228   13.1143    0.0223   13.9636    0.0255   14.1833    0.0262    0.0000    0.0000
  0.100   14.3771    0.0334   14.3410    0.0332   13.2112    0.0286   13.1176    0.0279   13.9674    0.0319   14.1872    0.0327    0.0000    0.0000
  0.120   14.3820    0.0401   14.3458    0.0399   13.2154    0.0343   13.1217    0.0335   13.9720    0.0383   14.1920    0.0393    0.0000    0.0000
  0.140   14.3877    0.0468   14.3515    0.0466   13.2203    0.0401   13.1265    0.0391   13.9775    0.0447   14.1976    0.0459    0.0000    0.0000
  0.160   14.3944    0.0535   14.3581    0.0533   13.2260    0.0459   13.1320    0.0447   13.9838    0.0511   14.2041    0.0525    0.0000    0.0000
  0.180   14.4019    0.0603   14.3656    0.0601   13.2324    0.0516   13.1383    0.0504   13.9910    0.0576   14.2115    0.0592    0.0000    0.0000
  0.200   14.4103    0.0671   14.3740    0.0668   13.2397    0.0575   13.1454    0.0561   13.9991    0.0641   14.2198    0.0658    0.0000    0.0000
  0.220   14.4196    0.0739   14.3833    0.0737   13.2476    0.0633   13.1531    0.0617   14.0080    0.0706   14.2289    0.0725    0.0000    0.0000
  0.240   14.4299    0.0808   14.3935    0.0805   13.2564    0.0692   13.1617    0.0675   14.0177    0.0771   14.2389    0.0793    0.0000    0.0000
  0.260   14.4410    0.0877   14.4046    0.0874   13.2659    0.0751   13.1710    0.0732   14.0283    0.0837   14.2499    0.0860    0.0000    0.0000
  0.280   14.4530    0.0946   14.4166    0.0943   13.2763    0.0810   13.1811    0.0790   14.0399    0.0903   14.2617    0.0928    0.0000    0.0000
  0.300   14.4660    0.1016   14.4295    0.1012   13.2874    0.0870   13.1919    0.0848   14.0522    0.0970   14.2744    0.0997    0.0000    0.0000
  0.320   14.4799    0.1086   14.4433    0.1082   13.2993    0.0930   13.2035    0.0907   14.0655    0.1037   14.2880    0.1066    0.0000    0.0000
  0.340   14.4947    0.1157   14.4581    0.1153   13.3120    0.0990   13.2159    0.0965   14.0797    0.1105   14.3026    0.1135    0.0000    0.0000
  0.360   14.5105    0.1229   14.4738    0.1224   13.3254    0.1051   13.2290    0.1025   14.0947    0.1173   14.3181    0.1205    0.0000    0.0000
  0.380   14.5272    0.1300   14.4905    0.1295   13.3398    0.1112   13.2430    0.1084   14.1106    0.1241   14.3344    0.1276    0.0000    0.0000
  0.400   14.5449    0.1373   14.5081    0.1368   13.3549    0.1174   13.2577    0.1145   14.1275    0.1310   14.3518    0.1347    0.0000    0.0000
  0.420   14.5635    0.1446   14.5266    0.1440   13.3708    0.1236   13.2733    0.1205   14.1453    0.1380   14.3700    0.1419    0.0000    0.0000
  0.440   14.5831    0.1520   14.5461    0.1514   13.3876    0.1299   13.2896    0.1266   14.1640    0.1450   14.3893    0.1491    0.0000    0.0000
  0.460   14.6037    0.1594   14.5666    0.1588   13.4052    0.1363   13.3068    0.1328   14.1836    0.1522   14.4095    0.1564    0.0000    0.0000
  0.480   14.6252    0.1670   14.5881    0.1663   13.4236    0.1427   13.3247    0.1391   14.2042    0.1593   14.4306    0.1638    0.0000    0.0000
  0.500   14.6478    0.1746   14.6106    0.1739   13.4429    0.1491   13.3435    0.1454   14.2257    0.1666   14.4527    0.1713    0.0000    0.0000
  0.520   14.6714    0.1823   14.6341    0.1816   13.4630    0.1557   13.3632    0.1517   14.2482    0.1739   14.4759    0.1788    0.0000    0.0000
  0.540   14.6960    0.1901   14.6586    0.1893   13.4840    0.1623   13.3837    0.1581   14.2717    0.1813   14.5000    0.1865    0.0000    0.0000
  0.560   14.7216    0.1980   14.6841    0.1972   13.5059    0.1690   13.4050    0.1646   14.2962    0.1889   14.5251    0.1942    0.0000    0.0000
  0.580   14.7483    0.2059   14.7106    0.2051   13.5287    0.1757   13.4272    0.1712   14.3216    0.1965   14.5513    0.2020    0.0000    0.0000
  0.600   14.7760    0.2140   14.7383    0.2132   13.5524    0.1826   13.4503    0.1779   14.3481    0.2042   14.5785    0.2099    0.0000    0.0000
  0.620   14.8048    0.2222   14.7670    0.2213   13.5770    0.1895   13.4742    0.1846   14.3755    0.2120   14.6068    0.2180    0.0000    0.0000
  0.640   14.8347    0.2305   14.7967    0.2296   13.6025    0.1966   13.4991    0.1914   14.4041    0.2199   14.6361    0.2261    0.0000    0.0000
  0.660   14.8657    0.2389   14.8276    0.2380   13.6289    0.2037   13.5248    0.1983   14.4336    0.2279   14.6665    0.2344    0.0000    0.0000
  0.680   14.8978    0.2475   14.8596    0.2465   13.6563    0.2109   13.5515    0.2053   14.4642    0.2360   14.6980    0.2428    0.0000    0.0000
  0.700   14.9310    0.2561   14.8927    0.2551   13.6846    0.2182   13.5791    0.2124   14.4959    0.2443   14.7306    0.2513    0.0000    0.0000
  0.720   14.9654    0.2650   14.9270    0.2639   13.7140    0.2256   13.6076    0.2196   14.5287    0.2526   14.7643    0.2599    0.0000    0.0000
  0.740   15.0010    0.2739   14.9624    0.2728   13.7443    0.2332   13.6371    0.2269   14.5627    0.2612   14.7992    0.2687    0.0000    0.0000
  0.760   15.0377    0.2830   14.9990    0.2819   13.7756    0.2408   13.6676    0.2343   14.5977    0.2698   14.8352    0.2776    0.0000    0.0000
  0.780   15.0757    0.2922   15.0368    0.2911   13.8079    0.2486   13.6990    0.2419   14.6339    0.2786   14.8725    0.2867    0.0000    0.0000
  0.800   15.1149    0.3016   15.0758    0.3004   13.8412    0.2565   13.7315    0.2495   14.6712    0.2876   14.9109    0.2959    0.0000    0.0000
  0.820   15.1553    0.3112   15.1161    0.3100   13.8756    0.2645   13.7650    0.2573   14.7098    0.2967   14.9506    0.3053    0.0000    0.0000
  0.840   15.1970    0.3210   15.1576    0.3197   13.9111    0.2727   13.7995    0.2652   14.7495    0.3059   14.9915    0.3148    0.0000    0.0000
  0.860   15.2400    0.3309   15.2004    0.3296   13.9476    0.2810   13.8350    0.2733   14.7905    0.3154   15.0336    0.3246    0.0000    0.0000
  0.880   15.2843    0.3410   15.2445    0.3396   13.9853    0.2895   13.8716    0.2814   14.8327    0.3250   15.0771    0.3345    0.0000    0.0000
  0.900   15.3299    0.3513   15.2900    0.3499   14.0240    0.2981   13.9093    0.2898   14.8763    0.3348   15.1219    0.3446    0.0000    0.0000
  0.920   15.3770    0.3619   15.3368    0.3604   14.0639    0.3069   13.9481    0.2983   14.9211    0.3448   15.1680    0.3549    0.0000    0.0000
  0.940   15.4254    0.3726   15.3850    0.3711   14.1050    0.3159   13.9881    0.3069   14.9672    0.3550   15.2155    0.3655    0.0000    0.0000
  0.960   15.4752    0.3836   15.4347    0.3820   14.1473    0.3250   14.0291    0.3157   15.0147    0.3654   15.2643    0.3762    0.0000    0.0000
  0.980   15.5265    0.3947   15.4857    0.3931   14.1908    0.3343   14.0714    0.3247   15.0635    0.3760   15.3146    0.3872    0.0000    0.0000
  1.000   15.5792    0.4062   15.5383    0.4045   14.2355    0.3438   14.1148    0.3339   15.1138    0.3869   15.3664    0.3984    0.0000    0.0000
  1.020   15.6335    0.4179   15.5924    0.4162   14.2815    0.3535   14.1595    0.3432   15.1655    0.3980   15.4196    0.4099    0.0000    0.0000
  1.040   15.6893    0.4298   15.6480    0.4281   14.3287    0.3634   14.2054    0.3527   15.2187    0.4093   15.4744    0.4216    0.0000    0.0000
  1.060   15.7468    0.4421   15.7051    0.4403   14.3773    0.3736   14.2525    0.3625   15.2733    0.4209   15.5307    0.4336    0.0000    0.0000
  1.080   15.8058    0.4546   15.7639    0.4527   14.4272    0.3839   14.3010    0.3725   15.3295    0.4328   15.5886    0.4459    0.0000    0.0000
  1.100   15.8665    0.4674   15.8244    0.4655   14.4785    0.3945   14.3507    0.3826   15.3873    0.4449   15.6481    0.4585    0.0000    0.0000
  1.120   15.9289    0.4806   15.8865    0.4786   14.5312    0.4054   14.4019    0.3931   15.4467    0.4574   15.7093    0.4714    0.0000    0.0000
  1.140   15.9930    0.4940   15.9503    0.4920   14.5853    0.4165   14.4544    0.4037   15.5078    0.4702   15.7722    0.4846    0.0000    0.0000
  1.160   16.0589    0.5079   16.0160    0.5058   14.6409    0.4278   14.5083    0.4146   15.5705    0.4833   15.8368    0.4981    0.0000    0.0000
  1.180   16.1266    0.5220   16.0834    0.5199   14.6980    0.4395   14.5636    0.4258   15.6349    0.4967   15.9032    0.5120    0.0000    0.0000
  1.200   16.1962    0.5366   16.1527    0.5344   14.7566    0.4514   14.6204    0.4372   15.7012    0.5105   15.9715    0.5263    0.0000    0.0000
  1.220   16.2677    0.5515   16.2239    0.5492   14.8168    0.4637   14.6788    0.4489   15.7692    0.5246   16.0417    0.5410    0.0000    0.0000
  1.240   16.3412    0.5669   16.2971    0.5645   14.8787    0.4762   14.7387    0.4610   15.8391    0.5392   16.1137    0.5560    0.0000    0.0000
  1.260   16.4167    0.5827   16.3723    0.5803   14.9422    0.4891   14.8002    0.4733   15.9110    0.5541   16.1878    0.5715    0.0000    0.0000
  1.280   16.4943    0.5989   16.4496    0.5964   15.0074    0.5024   14.8633    0.4859   15.9848    0.5695   16.2639    0.5875    0.0000    0.0000
  1.300   16.5741    0.6157   16.5290    0.6131   15.0743    0.5160   14.9280    0.4989   16.0606    0.5853   16.3421    0.6039    0.0000    0.0000
  1.320   16.6560    0.6329   16.6106    0.6302   15.1431    0.5300   14.9945    0.5123   16.1385    0.6016   16.4225    0.6208    0.0000    0.0000
  1.340   16.7402    0.6506   16.6945    0.6479   15.2136    0.5444   15.0628    0.5260   16.2186    0.6183   16.5051    0.6382    0.0000    0.0000
  1.360   16.8268    0.6689   16.7807    0.6661   15.2861    0.5592   15.1329    0.5401   16.3008    0.6356   16.5900    0.6561    0.0000    0.0000
  1.380   16.9157    0.6878   16.8692    0.6849   15.3606    0.5745   15.2048    0.5546   16.3854    0.6535   16.6772    0.6746    0.0000    0.0000
  1.400   17.0071    0.7073   16.9603    0.7042   15.4370    0.5902   15.2786    0.5696   16.4722    0.6718   16.7669    0.6938    0.0000    0.0000
  1.420   17.1011    0.7274   17.0538    0.7243   15.5155    0.6064   15.3544    0.5850   16.5615    0.6908   16.8591    0.7135    0.0000    0.0000
  1.440   17.1977    0.7481   17.1501    0.7449   15.5962    0.6232   15.4323    0.6008   16.6533    0.7104   16.9538    0.7339    0.0000    0.0000
  1.460   17.2971    0.7696   17.2490    0.7663   15.6790    0.6404   15.5122    0.6172   16.7477    0.7307   17.0513    0.7550    0.0000    0.0000
  1.480   17.3992    0.7918   17.3507    0.7884   15.7641    0.6582   15.5943    0.6340   16.8447    0.7517   17.1515    0.7768    0.0000    0.0000
  1.500   17.5043    0.8149   17.4553    0.8113   15.8516    0.6767   15.6786    0.6514   16.9444    0.7734   17.2546    0.7994    0.0000    0.0000
  1.520   17.6124    0.8387   17.5629    0.8351   15.9414    0.6957   15.7651    0.6694   17.0470    0.7959   17.3606    0.8228    0.0000    0.0000
  1.540   17.7236    0.8634   17.6736    0.8596   16.0338    0.7154   15.8540    0.6880   17.1526    0.8191   17.4696    0.8471    0.0000    0.0000
  1.560   17.8380    0.8890   17.7875    0.8852   16.1287    0.7358   15.9454    0.7072   17.2611    0.8433   17.5819    0.8722    0.0000    0.0000
  1.580   17.9557    0.9156   17.9048    0.9116   16.2263    0.7569   16.0393    0.7270   17.3728    0.8683   17.6974    0.8984    0.0000    0.0000
  1.600   18.0769    0.9432   18.0255    0.9391   16.3266    0.7788   16.1358    0.7476   17.4878    0.8944   17.8163    0.9255    0.0000    0.0000
  1.620   18.2017    0.9720   18.1497    0.9677   16.4299    0.8015   16.2349    0.7689   17.6062    0.9214   17.9388    0.9538    0.0000    0.0000
  1.640   18.3303    1.0019   18.2777    0.9975   16.5360    0.8251   16.3369    0.7910   17.7281    0.9495   18.0649    0.9831    0.0000    0.0000
  1.660   18.4627    1.0330   18.4095    1.0284   16.6453    0.8496   16.4417    0.8139   17.8536    0.9788   18.1948    1.0137    0.0000    0.0000
  1.680   18.5991    1.0654   18.5454    1.0607   16.7577    0.8750   16.5495    0.8377   17.9829    1.0093   18.3287    1.0456    0.0000    0.0000
  1.700   18.7398    1.0992   18.6854    1.0943   16.8734    0.9015   16.6604    0.8624   18.1162    1.0411   18.4667    1.0789    0.0000    0.0000
  1.720   18.8847    1.1345   18.8297    1.1295   16.9925    0.9291   16.7746    0.8880   18.2536    1.0743   18.6089    1.1136    0.0000    0.0000
  1.740   19.0343    1.1714   18.9786    1.1661   17.1153    0.9579   16.8920    0.9148   18.3952    1.1090   18.7557    1.1499    0.0000    0.0000
  1.760   19.1886    1.2099   19.1322    1.2045   17.2417    0.9879   17.0129    0.9426   18.5413    1.1452   18.9071    1.1879    0.0000    0.0000
  1.780   19.3478    1.2503   19.2907    1.2447   17.3720    1.0192   17.1374    0.9716   18.6920    1.1831   19.0634    1.2276    0.0000    0.0000
  1.800   19.5122    1.2926   19.4544    1.2868   17.5063    1.0519   17.2657    1.0018   18.8477    1.2228   19.2247    1.2693    0.0000    0.0000
  1.820   19.6820    1.3369   19.6234    1.3309   17.6449    1.0862   17.3979    1.0334   19.0083    1.2644   19.3914    1.3130    0.0000    0.0000
  1.840   19.8574    1.3835   19.7980    1.3772   17.7878    1.1220   17.5341    1.0663   19.1743    1.3081   19.5636    1.3590    0.0000    0.0000
  1.860   20.0387    1.4324   19.9786    1.4260   17.9352    1.1596   17.6745    1.1008   19.3458    1.3540   19.7417    1.4073    0.0000    0.0000
  1.880   20.2263    1.4839   20.1653    1.4772   18.0875    1.1991   17.8194    1.1369   19.5232    1.4024   19.9258    1.4582    0.0000    0.0000
  1.900   20.4203    1.5382   20.3584    1.5313   18.2448    1.2405   17.9689    1.1748   19.7066    1.4532   20.1163    1.5118    0.0000    0.0000
  1.920   20.6212    1.5955   20.5584    1.5882   18.4073    1.2841   18.1232    1.2145   19.8964    1.5069   20.3136    1.5684    0.0000    0.0000
  1.940   20.8292    1.6560   20.7654    1.6485   18.5753    1.3300   18.2826    1.2561   20.0930    1.5636   20.5179    1.6283    0.0000    0.0000
  1.960   21.0447    1.7200   20.9800    1.7122   18.7491    1.3785   18.4472    1.3000   20.2966    1.6235   20.7297    1.6916    0.0000    0.0000
  1.980   21.2682    1.7878   21.2025    1.7796   18.9289    1.4296   18.6174    1.3461   20.5077    1.6870   20.9493    1.7588    0.0000    0.0000
  2.000   21.5001    1.8597   21.4333    1.8513   19.1151    1.4837   18.7934    1.3948   20.7266    1.7544   21.1771    1.8302    0.0000    0.0000
  2.020   21.7408    1.9362   21.6728    1.9274   19.3080    1.5410   18.9755    1.4461   20.9537    1.8259   21.4136    1.9061    0.0000    0.0000
  2.040   21.9908    2.0176   21.9217    2.0084   19.5079    1.6018   19.1640    1.5004   21.1896    1.9021   21.6593    1.9870    0.0000    0.0000
  2.060   22.2506    2.1044   22.1803    2.0948   19.7152    1.6665   19.3592    1.5578   21.4347    1.9833   21.9148    2.0734    0.0000    0.0000
  2.080   22.5209    2.1971   22.4493    2.1872   19.9304    1.7353   19.5615    1.6187   21.6896    2.0700   22.1805    2.1659    0.0000    0.0000
  2.100   22.8021    2.2964   22.7293    2.2860   20.1538    1.8088   19.7713    1.6834   21.9548    2.1628   22.4571    2.2650    0.0001    0.0000
  2.120   23.0951    2.4030   23.0209    2.3921   20.3860    1.8873   19.9890    1.7522   22.2309    2.2623   22.7452    2.3715    0.0001    0.0000
  2.140   23.4005    2.5175   23.3249    2.5062   20.6274    1.9714   20.2151    1.8255   22.5187    2.3693   23.0455    2.4863    0.0003    0.0000
  2.160   23.7190    2.6409   23.6419    2.6291   20.8786    2.0617   20.4499    1.9038   22.8187    2.4846   23.3588    2.6102    0.0006    0.0000
  2.180   24.0516    2.7743   23.9729    2.7619   21.1402    2.1590   20.6940    1.9876   23.1319    2.6091   23.6859    2.7444    0.0011    0.0000
  2.200   24.3990    2.9188   24.3187    2.9059   21.4127    2.2639   20.9480    2.0774   23.4590    2.7439   24.0275    2.8901    0.0022    0.0000
  2.220   24.7621    3.0757   24.6801    3.0622   21.6969    2.3775   21.2125    2.1738   23.8009    2.8903   24.3845    3.0488    0.0040    0.0000
  2.240   25.1420    3.2467   25.0583    3.2326   21.9933    2.5009   21.4881    2.2778   24.1585    3.0497   24.7579    3.2223    0.0073    0.0000
  2.260   25.5398    3.4335   25.4541    3.4188   22.3027    2.6352   21.7754    2.3900   24.5328    3.2238   25.1484    3.4125    0.0126    0.0000
  2.280   25.9563    3.6384   25.8687    3.6230   22.6258    2.7819   22.0753    2.5115   24.9249    3.4148   25.5570    3.6219    0.0212    0.0000
  2.300   26.3927    3.8638   26.3031    3.8478   22.9632    2.9427   22.3884    2.6435   25.3358    3.6247   25.9843    3.8530    0.0345    0.0001
  2.320   26.8500    4.1127   26.7583    4.0960   23.3157    3.1197   22.7156    2.7873   25.7665    3.8566   26.4310    4.1093    0.0544    0.0001
  2.340   27.3292    4.3886   27.2351    4.3712   23.6838    3.3152   23.0578    2.9444   26.2180    4.1135   26.8974    4.3945    0.0834    0.0002
  2.360   27.8308    4.6955   27.7344    4.6774   24.0677    3.5319   23.4158    3.1167   26.6912    4.3993   27.3833    4.7129    0.1241    0.0003
  2.380   28.3554    5.0381   28.2565    5.0193   24.4678    3.7728   23.7906    3.3063   27.1869    4.7187   27.8879    5.0694    0.1799    0.0004
  2.400   28.9028    5.4218   28.8012    5.4025   24.8835    4.0417   24.1830    3.5158   27.7052    5.0771   28.4092    5.4693    0.2542    0.0006
  2.420   29.4723    5.8529   29.3679    5.8332   25.3140    4.3424   24.5939    3.7482   28.2459    5.4808   28.9442    5.9182    0.3509    0.0008
  2.440   30.0620    6.3382   29.9546    6.3183   25.7576    4.6791   25.0240    4.0071   28.8077    5.9373   29.4882    6.4212    0.4747    0.0012
  2.460   30.6691    6.8848   30.5584    6.8651   26.2119    5.0559   25.4736    4.2968   29.3881    6.4551   30.0353    6.9822    0.6309    0.0016
  2.480   31.2894    7.5004   31.1750    7.4815   26.6733    5.4767   25.9430    4.6224   29.9826    7.0438   30.5787    7.6032    0.8261    0.0023
  2.500   31.9177    8.1922   31.7988    8.1749   27.1383    5.9446   26.4316    4.9900   30.5840    7.7136   31.1129    8.2834    1.0688    0.0030
  2.520   32.5483    8.9682   32.4235    8.9535   27.6030    6.4624   26.9379    5.4067   31.1820    8.4746   31.6357    9.0207    1.3693    0.0040
  2.540   33.1746    9.8368   33.0418    9.8257   28.0643    7.0330   27.4589    5.8809   31.7628    9.3355   32.1497    9.8146    1.7403    0.0053
  2.560   33.7889   10.8089   33.6448   10.8020   28.5193    7.6607   27.9897    6.4223   32.3094   10.3026   32.6614   10.6716    2.1955    0.0069
  2.580   34.3797   11.8981   34.2200   11.8952   28.9638    8.3519   28.5221    7.0413   32.8031   11.3782   33.1755   11.6080    2.7490    0.0090
