# GW Macroscopic dielectric function without local field effects 
# Scissor operator energy =  0.8000 [eV]
# Tolerance =  0.0200 0.0200
# npweps  = 59
# npwwfn  = 137
# nbands  = 6
# loband  = 2
# nkibz   = 216
# nkbz    = 216
# Lorentzian broadening =  0.1500 [eV]
# List of q-points for the optical limit:
# q =  0.938821, 0.000000, 0.000000, [Reduced coords] 
# q =  0.000000, 0.938821, 0.000000, [Reduced coords] 
# q =  0.000000, 0.000000, 0.938821, [Reduced coords] 
# q =  0.000000, 0.813043, 0.813043, [Reduced coords] 
# q =  0.813043, 0.000000, 0.813043, [Reduced coords] 
# q =  0.813043, 0.813043, 0.000000, [Reduced coords] 
# omega [eV]    RE(eps(q=1)) IM(eps(q=1) RE(eps(q=2) ) ... DOS   IDOS
  0.000   11.9169    0.0000   11.8886    0.0000   11.0230    0.0000   10.9594    0.0000   11.5980    0.0000   11.7677    0.0000    0.0000    0.0000
  0.020   11.9171    0.0035   11.8888    0.0035   11.0232    0.0031   10.9596    0.0030   11.5983    0.0034   11.7679    0.0034    0.0000    0.0000
  0.040   11.9178    0.0070   11.8895    0.0070   11.0238    0.0061   10.9602    0.0060   11.5989    0.0067   11.7686    0.0069    0.0000    0.0000
  0.060   11.9190    0.0105   11.8907    0.0105   11.0248    0.0092   10.9612    0.0090   11.6000    0.0101   11.7697    0.0103    0.0000    0.0000
  0.080   11.9206    0.0140   11.8923    0.0140   11.0263    0.0122   10.9626    0.0120   11.6016    0.0134   11.7713    0.0138    0.0000    0.0000
  0.100   11.9227    0.0175   11.8944    0.0175   11.0281    0.0153   10.9644    0.0150   11.6036    0.0168   11.7734    0.0172    0.0000    0.0000
  0.120   11.9253    0.0210   11.8969    0.0210   11.0303    0.0184   10.9666    0.0180   11.6061    0.0202   11.7759    0.0207    0.0000    0.0000
  0.140   11.9283    0.0246   11.8999    0.0245   11.0330    0.0214   10.9692    0.0210   11.6090    0.0236   11.7789    0.0241    0.0000    0.0000
  0.160   11.9318    0.0281   11.9034    0.0280   11.0360    0.0245   10.9722    0.0240   11.6123    0.0269   11.7823    0.0276    0.0000    0.0000
  0.180   11.9357    0.0316   11.9074    0.0315   11.0395    0.0276   10.9755    0.0271   11.6161    0.0303   11.7862    0.0311    0.0000    0.0000
  0.200   11.9402    0.0352   11.9118    0.0351   11.0433    0.0307   10.9793    0.0301   11.6203    0.0337   11.7905    0.0346    0.0000    0.0000
  0.220   11.9451    0.0387   11.9167    0.0386   11.0476    0.0338   10.9835    0.0331   11.6250    0.0371   11.7953    0.0380    0.0000    0.0000
  0.240   11.9505    0.0423   11.9220    0.0422   11.0523    0.0369   10.9881    0.0362   11.6302    0.0406   11.8006    0.0415    0.0000    0.0000
  0.260   11.9563    0.0459   11.9279    0.0457   11.0574    0.0400   10.9931    0.0392   11.6358    0.0440   11.8064    0.0451    0.0000    0.0000
  0.280   11.9626    0.0495   11.9342    0.0493   11.0629    0.0431   10.9985    0.0423   11.6419    0.0474   11.8126    0.0486    0.0000    0.0000
  0.300   11.9694    0.0531   11.9409    0.0529   11.0688    0.0463   11.0044    0.0454   11.6484    0.0509   11.8193    0.0521    0.0000    0.0000
  0.320   11.9767    0.0567   11.9482    0.0565   11.0752    0.0494   11.0106    0.0485   11.6554    0.0543   11.8264    0.0557    0.0000    0.0000
  0.340   11.9845    0.0604   11.9559    0.0601   11.0819    0.0526   11.0172    0.0516   11.6628    0.0578   11.8340    0.0593    0.0000    0.0000
  0.360   11.9927    0.0640   11.9641    0.0638   11.0891    0.0558   11.0243    0.0547   11.6707    0.0613   11.8421    0.0628    0.0000    0.0000
  0.380   12.0014    0.0677   11.9728    0.0674   11.0967    0.0590   11.0317    0.0578   11.6791    0.0649   11.8507    0.0665    0.0000    0.0000
  0.400   12.0107    0.0714   11.9820    0.0711   11.1048    0.0622   11.0396    0.0610   11.6879    0.0684   11.8598    0.0701    0.0000    0.0000
  0.420   12.0204    0.0751   11.9917    0.0748   11.1132    0.0654   11.0479    0.0641   11.6972    0.0719   11.8693    0.0737    0.0000    0.0000
  0.440   12.0306    0.0788   12.0019    0.0785   11.1221    0.0686   11.0566    0.0673   11.7070    0.0755   11.8793    0.0774    0.0000    0.0000
  0.460   12.0413    0.0826   12.0125    0.0823   11.1314    0.0719   11.0658    0.0705   11.7172    0.0791   11.8898    0.0811    0.0000    0.0000
  0.480   12.0525    0.0864   12.0237    0.0861   11.1412    0.0752   11.0753    0.0737   11.7280    0.0827   11.9008    0.0848    0.0000    0.0000
  0.500   12.0642    0.0902   12.0354    0.0898   11.1514    0.0785   11.0853    0.0770   11.7392    0.0864   11.9123    0.0885    0.0000    0.0000
  0.520   12.0764    0.0940   12.0475    0.0937   11.1620    0.0818   11.0958    0.0802   11.7509    0.0901   11.9243    0.0923    0.0000    0.0000
  0.540   12.0891    0.0979   12.0602    0.0975   11.1731    0.0852   11.1066    0.0835   11.7631    0.0938   11.9368    0.0961    0.0000    0.0000
  0.560   12.1024    0.1018   12.0734    0.1014   11.1846    0.0886   11.1179    0.0868   11.7758    0.0975   11.9498    0.0999    0.0000    0.0000
  0.580   12.1161    0.1057   12.0871    0.1053   11.1966    0.0920   11.1297    0.0902   11.7889    0.1012   11.9633    0.1038    0.0000    0.0000
  0.600   12.1304    0.1096   12.1013    0.1092   11.2090    0.0954   11.1418    0.0935   11.8026    0.1050   11.9773    0.1076    0.0000    0.0000
  0.620   12.1452    0.1136   12.1161    0.1132   11.2219    0.0988   11.1545    0.0969   11.8168    0.1088   11.9918    0.1115    0.0000    0.0000
  0.640   12.1605    0.1176   12.1313    0.1172   11.2352    0.1023   11.1676    0.1003   11.8315    0.1127   12.0069    0.1155    0.0000    0.0000
  0.660   12.1764    0.1217   12.1471    0.1212   11.2490    0.1058   11.1811    0.1037   11.8467    0.1166   12.0224    0.1195    0.0000    0.0000
  0.680   12.1928    0.1258   12.1635    0.1253   11.2633    0.1094   11.1951    0.1072   11.8624    0.1205   12.0385    0.1235    0.0000    0.0000
  0.700   12.2097    0.1299   12.1804    0.1294   11.2780    0.1129   11.2095    0.1107   11.8786    0.1244   12.0552    0.1275    0.0000    0.0000
  0.720   12.2272    0.1341   12.1978    0.1336   11.2932    0.1165   11.2244    0.1142   11.8954    0.1284   12.0724    0.1316    0.0000    0.0000
  0.740   12.2453    0.1383   12.2158    0.1378   11.3089    0.1202   11.2398    0.1178   11.9127    0.1324   12.0901    0.1358    0.0000    0.0000
  0.760   12.2639    0.1425   12.2343    0.1420   11.3251    0.1239   11.2557    0.1214   11.9305    0.1365   12.1084    0.1399    0.0000    0.0000
  0.780   12.2831    0.1468   12.2534    0.1463   11.3418    0.1276   11.2720    0.1250   11.9489    0.1406   12.1272    0.1442    0.0000    0.0000
  0.800   12.3028    0.1512   12.2731    0.1506   11.3589    0.1313   11.2888    0.1287   11.9678    0.1448   12.1466    0.1484    0.0000    0.0000
  0.820   12.3231    0.1556   12.2934    0.1550   11.3766    0.1351   11.3061    0.1324   11.9872    0.1490   12.1665    0.1527    0.0000    0.0000
  0.840   12.3440    0.1600   12.3142    0.1594   11.3948    0.1389   11.3240    0.1361   12.0073    0.1532   12.1871    0.1571    0.0000    0.0000
  0.860   12.3656    0.1645   12.3356    0.1639   11.4134    0.1428   11.3423    0.1399   12.0279    0.1575   12.2082    0.1615    0.0000    0.0000
  0.880   12.3877    0.1691   12.3577    0.1685   11.4326    0.1467   11.3611    0.1438   12.0490    0.1619   12.2299    0.1660    0.0000    0.0000
  0.900   12.4104    0.1737   12.3803    0.1730   11.4524    0.1507   11.3804    0.1476   12.0708    0.1663   12.2522    0.1705    0.0000    0.0000
  0.920   12.4337    0.1783   12.4035    0.1777   11.4726    0.1547   11.4002    0.1515   12.0931    0.1707   12.2751    0.1751    0.0000    0.0000
  0.940   12.4576    0.1831   12.4274    0.1824   11.4934    0.1588   11.4206    0.1555   12.1160    0.1752   12.2986    0.1797    0.0000    0.0000
  0.960   12.4822    0.1878   12.4518    0.1871   11.5147    0.1629   11.4414    0.1595   12.1395    0.1798   12.3227    0.1844    0.0000    0.0000
  0.980   12.5074    0.1927   12.4770    0.1920   11.5365    0.1670   11.4628    0.1636   12.1637    0.1844   12.3474    0.1891    0.0000    0.0000
  1.000   12.5333    0.1976   12.5027    0.1969   11.5590    0.1712   11.4848    0.1677   12.1884    0.1891   12.3728    0.1940    0.0000    0.0000
  1.020   12.5598    0.2026   12.5291    0.2018   11.5819    0.1755   11.5073    0.1718   12.2138    0.1939   12.3988    0.1988    0.0000    0.0000
  1.040   12.5869    0.2076   12.5562    0.2068   11.6055    0.1798   11.5303    0.1761   12.2398    0.1987   12.4255    0.2038    0.0000    0.0000
  1.060   12.6148    0.2127   12.5839    0.2119   11.6296    0.1842   11.5540    0.1803   12.2664    0.2036   12.4528    0.2088    0.0000    0.0000
  1.080   12.6433    0.2179   12.6123    0.2171   11.6543    0.1886   11.5781    0.1847   12.2937    0.2085   12.4808    0.2139    0.0000    0.0000
  1.100   12.6725    0.2232   12.6414    0.2223   11.6796    0.1932   11.6029    0.1891   12.3217    0.2136   12.5095    0.2191    0.0000    0.0000
  1.120   12.7024    0.2285   12.6712    0.2277   11.7055    0.1977   11.6282    0.1935   12.3503    0.2187   12.5388    0.2243    0.0000    0.0000
  1.140   12.7330    0.2340   12.7017    0.2331   11.7320    0.2024   11.6542    0.1980   12.3796    0.2238   12.5689    0.2296    0.0000    0.0000
  1.160   12.7644    0.2395   12.7330    0.2386   11.7591    0.2071   11.6807    0.2026   12.4096    0.2291   12.5996    0.2350    0.0000    0.0000
  1.180   12.7964    0.2451   12.7649    0.2442   11.7868    0.2118   11.7079    0.2073   12.4403    0.2344   12.6311    0.2405    0.0000    0.0000
  1.200   12.8293    0.2508   12.7976    0.2498   11.8152    0.2167   11.7356    0.2120   12.4717    0.2399   12.6633    0.2461    0.0000    0.0000
  1.220   12.8628    0.2565   12.8311    0.2556   11.8442    0.2216   11.7640    0.2168   12.5038    0.2454   12.6963    0.2518    0.0000    0.0000
  1.240   12.8972    0.2624   12.8653    0.2614   11.8739    0.2266   11.7931    0.2216   12.5367    0.2510   12.7300    0.2576    0.0000    0.0000
  1.260   12.9323    0.2684   12.9003    0.2674   11.9043    0.2317   11.8228    0.2266   12.5703    0.2567   12.7645    0.2634    0.0000    0.0000
  1.280   12.9683    0.2745   12.9361    0.2735   11.9353    0.2369   11.8531    0.2316   12.6046    0.2625   12.7998    0.2694    0.0000    0.0000
  1.300   13.0050    0.2807   12.9727    0.2796   11.9670    0.2421   11.8841    0.2367   12.6398    0.2684   12.8358    0.2755    0.0000    0.0000
  1.320   13.0426    0.2870   13.0101    0.2859   11.9994    0.2475   11.9158    0.2419   12.6757    0.2744   12.8727    0.2817    0.0000    0.0000
  1.340   13.0810    0.2934   13.0484    0.2923   12.0325    0.2529   11.9482    0.2472   12.7124    0.2805   12.9104    0.2880    0.0000    0.0000
  1.360   13.1202    0.2999   13.0875    0.2988   12.0664    0.2585   11.9813    0.2526   12.7499    0.2867   12.9489    0.2944    0.0000    0.0000
  1.380   13.1603    0.3066   13.1275    0.3054   12.1010    0.2641   12.0151    0.2581   12.7883    0.2931   12.9883    0.3009    0.0000    0.0000
  1.400   13.2013    0.3134   13.1683    0.3122   12.1363    0.2698   12.0496    0.2636   12.8275    0.2995   13.0285    0.3075    0.0000    0.0000
  1.420   13.2432    0.3203   13.2101    0.3191   12.1724    0.2757   12.0849    0.2693   12.8676    0.3061   13.0697    0.3143    0.0000    0.0000
  1.440   13.2861    0.3273   13.2527    0.3261   12.2093    0.2816   12.1209    0.2751   12.9085    0.3128   13.1117    0.3212    0.0000    0.0000
  1.460   13.3298    0.3345   13.2963    0.3333   12.2469    0.2877   12.1577    0.2809   12.9503    0.3197   13.1546    0.3283    0.0000    0.0000
  1.480   13.3746    0.3419   13.3409    0.3406   12.2854    0.2938   12.1953    0.2869   12.9931    0.3266   13.1985    0.3355    0.0000    0.0000
  1.500   13.4203    0.3493   13.3864    0.3480   12.3247    0.3001   12.2336    0.2930   13.0367    0.3338   13.2434    0.3428    0.0000    0.0000
  1.520   13.4669    0.3570   13.4329    0.3556   12.3648    0.3066   12.2728    0.2992   13.0813    0.3410   13.2892    0.3503    0.0000    0.0000
  1.540   13.5146    0.3648   13.4804    0.3634   12.4058    0.3131   12.3128    0.3056   13.1269    0.3484   13.3360    0.3580    0.0000    0.0000
  1.560   13.5634    0.3727   13.5290    0.3713   12.4477    0.3198   12.3537    0.3120   13.1735    0.3560   13.3838    0.3658    0.0000    0.0000
  1.580   13.6132    0.3809   13.5786    0.3794   12.4904    0.3266   12.3954    0.3186   13.2210    0.3637   13.4327    0.3737    0.0000    0.0000
  1.600   13.6641    0.3892   13.6293    0.3877   12.5340    0.3336   12.4380    0.3254   13.2696    0.3717   13.4826    0.3819    0.0000    0.0000
  1.620   13.7160    0.3977   13.6811    0.3962   12.5786    0.3407   12.4815    0.3322   13.3193    0.3797   13.5336    0.3902    0.0000    0.0000
  1.640   13.7692    0.4064   13.7340    0.4048   12.6241    0.3480   12.5259    0.3393   13.3700    0.3880   13.5857    0.3988    0.0000    0.0000
  1.660   13.8234    0.4153   13.7880    0.4137   12.6706    0.3554   12.5712    0.3464   13.4218    0.3964   13.6390    0.4075    0.0000    0.0000
  1.680   13.8789    0.4244   13.8432    0.4227   12.7181    0.3630   12.6175    0.3538   13.4747    0.4051   13.6934    0.4164    0.0000    0.0000
  1.700   13.9355    0.4337   13.8997    0.4320   12.7666    0.3707   12.6647    0.3612   13.5288    0.4139   13.7490    0.4255    0.0000    0.0000
  1.720   13.9934    0.4432   13.9573    0.4415   12.8161    0.3787   12.7130    0.3689   13.5841    0.4230   13.8058    0.4349    0.0000    0.0000
  1.740   14.0526    0.4530   14.0163    0.4512   12.8666    0.3868   12.7622    0.3767   13.6405    0.4322   13.8638    0.4445    0.0000    0.0000
  1.760   14.1130    0.4630   14.0765    0.4612   12.9183    0.3951   12.8125    0.3847   13.6982    0.4417   13.9231    0.4543    0.0000    0.0000
  1.780   14.1748    0.4732   14.1380    0.4714   12.9710    0.4036   12.8639    0.3929   13.7571    0.4515   13.9837    0.4643    0.0000    0.0000
  1.800   14.2379    0.4837   14.2009    0.4818   13.0249    0.4123   12.9163    0.4013   13.8174    0.4614   14.0457    0.4746    0.0000    0.0000
  1.820   14.3024    0.4945   14.2652    0.4926   13.0799    0.4212   12.9699    0.4099   13.8789    0.4716   14.1090    0.4852    0.0000    0.0000
  1.840   14.3684    0.5056   14.3308    0.5036   13.1361    0.4304   13.0246    0.4187   13.9418    0.4821   14.1737    0.4961    0.0000    0.0000
  1.860   14.4358    0.5169   14.3980    0.5149   13.1935    0.4397   13.0805    0.4277   14.0061    0.4929   14.2398    0.5072    0.0000    0.0000
  1.880   14.5047    0.5286   14.4666    0.5265   13.2522    0.4493   13.1375    0.4369   14.0718    0.5039   14.3074    0.5186    0.0000    0.0000
  1.900   14.5752    0.5406   14.5368    0.5384   13.3121    0.4592   13.1958    0.4463   14.1390    0.5153   14.3766    0.5304    0.0000    0.0000
  1.920   14.6472    0.5529   14.6086    0.5507   13.3733    0.4693   13.2553    0.4560   14.2077    0.5269   14.4473    0.5424    0.0000    0.0000
  1.940   14.7209    0.5655   14.6820    0.5633   13.4359    0.4797   13.3162    0.4660   14.2779    0.5389   14.5195    0.5548    0.0000    0.0000
  1.960   14.7962    0.5785   14.7570    0.5762   13.4998    0.4904   13.3783    0.4762   14.3497    0.5512   14.5935    0.5676    0.0000    0.0000
  1.980   14.8733    0.5919   14.8338    0.5895   13.5652    0.5013   13.4418    0.4867   14.4232    0.5639   14.6691    0.5807    0.0000    0.0000
  2.000   14.9521    0.6057   14.9123    0.6032   13.6320    0.5126   13.5067    0.4975   14.4983    0.5769   14.7464    0.5942    0.0000    0.0000
  2.020   15.0328    0.6198   14.9926    0.6173   13.7003    0.5241   13.5730    0.5085   14.5751    0.5903   14.8255    0.6081    0.0000    0.0000
  2.040   15.1153    0.6344   15.0748    0.6318   13.7701    0.5360   13.6407    0.5199   14.6537    0.6041   14.9065    0.6224    0.0000    0.0000
  2.060   15.1997    0.6495   15.1589    0.6468   13.8415    0.5483   13.7100    0.5316   14.7341    0.6184   14.9893    0.6372    0.0000    0.0000
  2.080   15.2862    0.6650   15.2449    0.6623   13.9145    0.5609   13.7808    0.5436   14.8164    0.6330   15.0741    0.6524    0.0000    0.0000
  2.100   15.3746    0.6810   15.3330    0.6782   13.9892    0.5739   13.8532    0.5560   14.9007    0.6481   15.1609    0.6681    0.0000    0.0000
  2.120   15.4652    0.6975   15.4233    0.6946   14.0656    0.5873   13.9273    0.5687   14.9869    0.6637   15.2497    0.6843    0.0000    0.0000
  2.140   15.5580    0.7145   15.5156    0.7115   14.1438    0.6010   14.0030    0.5818   15.0751    0.6798   15.3407    0.7010    0.0000    0.0000
  2.160   15.6529    0.7321   15.6102    0.7291   14.2237    0.6153   14.0804    0.5953   15.1655    0.6964   15.4339    0.7182    0.0000    0.0000
  2.180   15.7502    0.7503   15.7071    0.7472   14.3056    0.6299   14.1597    0.6093   15.2581    0.7136   15.5294    0.7361    0.0000    0.0000
  2.200   15.8499    0.7691   15.8064    0.7659   14.3894    0.6451   14.2407    0.6236   15.3529    0.7313   15.6272    0.7545    0.0000    0.0000
  2.220   15.9521    0.7885   15.9081    0.7852   14.4751    0.6607   14.3237    0.6384   15.4501    0.7497   15.7274    0.7736    0.0000    0.0000
  2.240   16.0568    0.8086   16.0124    0.8052   14.5629    0.6768   14.4086    0.6537   15.5496    0.7687   15.8301    0.7934    0.0000    0.0000
  2.260   16.1641    0.8295   16.1193    0.8260   14.6529    0.6935   14.4955    0.6695   15.6517    0.7883   15.9354    0.8138    0.0000    0.0000
  2.280   16.2742    0.8510   16.2289    0.8474   14.7450    0.7108   14.5845    0.6858   15.7563    0.8087   16.0434    0.8350    0.0000    0.0000
  2.300   16.3871    0.8734   16.3413    0.8697   14.8394    0.7287   14.6756    0.7027   15.8636    0.8298   16.1542    0.8570    0.0000    0.0000
  2.320   16.5029    0.8966   16.4566    0.8928   14.9361    0.7472   14.7690    0.7201   15.9737    0.8516   16.2678    0.8798    0.0000    0.0000
  2.340   16.6218    0.9207   16.5750    0.9168   15.0353    0.7663   14.8646    0.7382   16.0866    0.8743   16.3844    0.9034    0.0000    0.0000
  2.360   16.7438    0.9457   16.6964    0.9417   15.1370    0.7862   14.9626    0.7569   16.2024    0.8979   16.5041    0.9280    0.0000    0.0000
  2.380   16.8690    0.9717   16.8212    0.9676   15.2412    0.8068   15.0631    0.7762   16.3214    0.9224   16.6270    0.9536    0.0000    0.0000
  2.400   16.9976    0.9988   16.9492    0.9945   15.3482    0.8282   15.1661    0.7963   16.4435    0.9479   16.7532    0.9801    0.0000    0.0000
  2.420   17.1298    1.0269   17.0808    1.0225   15.4579    0.8504   15.2717    0.8171   16.5690    0.9743   16.8829    1.0078    0.0000    0.0000
  2.440   17.2656    1.0562   17.2161    1.0517   15.5706    0.8735   15.3800    0.8387   16.6978    1.0019   17.0161    1.0366    0.0000    0.0000
  2.460   17.4052    1.0868   17.3551    1.0821   15.6862    0.8975   15.4912    0.8611   16.8303    1.0307   17.1531    1.0667    0.0000    0.0000
  2.480   17.5488    1.1187   17.4980    1.1138   15.8049    0.9224   15.6052    0.8844   16.9665    1.0606   17.2940    1.0980    0.0000    0.0000
  2.500   17.6964    1.1519   17.6450    1.1469   15.9269    0.9485   15.7223    0.9087   17.1065    1.0919   17.4389    1.1307    0.0000    0.0000
  2.520   17.8484    1.1867   17.7963    1.1815   16.0523    0.9756   15.8426    0.9339   17.2506    1.1246   17.5880    1.1649    0.0000    0.0000
  2.540   18.0049    1.2230   17.9521    1.2176   16.1812    1.0039   15.9661    0.9601   17.3989    1.1587   17.7416    1.2007    0.0000    0.0000
  2.560   18.1660    1.2611   18.1125    1.2555   16.3137    1.0334   16.0930    0.9875   17.5516    1.1944   17.8997    1.2382    0.0000    0.0000
  2.580   18.3320    1.3009   18.2778    1.2951   16.4500    1.0643   16.2235    1.0161   17.7088    1.2318   18.0626    1.2774    0.0000    0.0000
